title:1                                                                               , recorded:12.03.20 09.38.47, sampling:128, subject:push                                                                            , labels:COUNTER INTERPOLATED AF3 F7 F3 FC5 T7 P7 O1 O2 P8 T8 FC6 F4 F8 AF4 RAW_CQ CQ_AF3 CQ_F7 CQ_F3 CQ_FC5 CQ_T7 CQ_P7 CQ_O1 CQ_O2 CQ_P8 CQ_T8 CQ_FC6 CQ_F4 CQ_F8 CQ_AF4 CQ_CMS CQ_DRL GYROX GYROY MARKER, chan:36, units:emotiv
47.00000000000000000000, 0.00000000000000000000, 4594.87168251253570000000, 3990.25631268192410000000, 4267.17938283334930000000, 4246.15374232185240000000, 4233.84605031512180000000, 4471.79476244523540000000, 4198.97425629605370000000, 4612.30757952207020000000, 3832.30759859555560000000, 4426.15373792027820000000, 4747.69219159610020000000, 4252.82040882549790000000, 4518.97424847103410000000, 4048.71784971389160000000, 0.00000000000000000000, 4.00000000000000000000, 4.00000000000000000000, 3.00000000000000000000, 4.00000000000000000000, 2.00000000000000000000, 1.00000000000000000000, 4.00000000000000000000, 2.00000000000000000000, 0.00000000000000000000, 4.00000000000000000000, 4.00000000000000000000, 3.00000000000000000000, 0.00000000000000000000, 4.00000000000000000000, 4.00000000000000000000, 4.00000000000000000000, 1671.00000000000000000000, 1689.00000000000000000000, 0.00000000000000000000
48.00000000000000000000, 0.00000000000000000000, 4590.76911851029220000000, 3993.84605618388700000000, 4264.10245983166710000000, 4239.48707581820690000000, 4259.99989582942360000000, 4471.28194194495520000000, 4196.92297429493190000000, 4614.35886152319110000000, 3833.33323959611650000000, 4429.74348142224150000000, 4744.61526859441710000000, 4253.33322932577810000000, 4519.99988947159450000000, 4045.64092671220900000000, 0.00000000000000000000, 4.00000000000000000000, 4.00000000000000000000, 3.00000000000000000000, 4.00000000000000000000, 2.00000000000000000000, 1.00000000000000000000, 4.00000000000000000000, 2.00000000000000000000, 0.00000000000000000000, 4.00000000000000000000, 4.00000000000000000000, 3.00000000000000000000, 0.00000000000000000000, 4.00000000000000000000, 4.00000000000000000000, 4.00000000000000000000, 1672.00000000000000000000, 1689.00000000000000000000, 0.00000000000000000000
49.00000000000000000000, 0.00000000000000000000, 4594.87168251253570000000, 4002.05118418837360000000, 4264.61528033194740000000, 4241.53835781932870000000, 4246.66656282213260000000, 4472.82040344579670000000, 4197.94861529549330000000, 4615.38450252375240000000, 3831.79477809527540000000, 4432.30758392364350000000, 4740.51270459217360000000, 4249.23066532353460000000, 4518.46142797075390000000, 4044.61528571164810000000, 0.00000000000000000000, 4.00000000000000000000, 4.00000000000000000000, 3.00000000000000000000, 4.00000000000000000000, 2.00000000000000000000, 1.00000000000000000000, 4.00000000000000000000, 2.00000000000000000000, 0.00000000000000000000, 4.00000000000000000000, 4.00000000000000000000, 3.00000000000000000000, 0.00000000000000000000, 4.00000000000000000000, 4.00000000000000000000, 4.00000000000000000000, 1672.00000000000000000000, 1688.00000000000000000000, 0.00000000000000000000
50.00000000000000000000, 0.00000000000000000000, 4606.15373351870490000000, 4011.28195319342100000000, 4269.23066483447110000000, 4247.69220382269300000000, 4235.89733231624360000000, 4473.33322394607690000000, 4192.30758979240820000000, 4613.33322052263070000000, 3831.28195759499480000000, 4423.07681491859600000000, 4734.87167908908940000000, 4248.20502432297420000000, 4517.94860747047280000000, 4042.05118321024610000000, 0.00000000000000000000, 4.00000000000000000000, 4.00000000000000000000, 3.00000000000000000000, 4.00000000000000000000, 2.00000000000000000000, 1.00000000000000000000, 4.00000000000000000000, 2.00000000000000000000, 0.00000000000000000000, 4.00000000000000000000, 4.00000000000000000000, 3.00000000000000000000, 0.00000000000000000000, 4.00000000000000000000, 4.00000000000000000000, 4.00000000000000000000, 1672.00000000000000000000, 1689.00000000000000000000, 0.00000000000000000000
51.00000000000000000000, 0.00000000000000000000, 4628.20501503076230000000, 4025.12810670099220000000, 4275.38451083783550000000, 4249.74348582381480000000, 4265.12810083222760000000, 4473.84604444635720000000, 4189.23066679072600000000, 4614.35886152319110000000, 3831.79477809527540000000, 4424.61527641943760000000, 4737.94860209077160000000, 4253.33322932577810000000, 4518.97424847103410000000, 4047.17938821305050000000, 0.00000000000000000000, 4.00000000000000000000, 4.00000000000000000000, 3.00000000000000000000, 4.00000000000000000000, 2.00000000000000000000, 1.00000000000000000000, 4.00000000000000000000, 2.00000000000000000000, 0.00000000000000000000, 4.00000000000000000000, 4.00000000000000000000, 3.00000000000000000000, 0.00000000000000000000, 4.00000000000000000000, 4.00000000000000000000, 4.00000000000000000000, 1672.00000000000000000000, 1687.00000000000000000000, 0.00000000000000000000
52.00000000000000000000, 0.00000000000000000000, 4651.79475804366210000000, 4041.02554220968520000000, 4278.97425433979880000000, 4254.35887032633850000000, 4276.41015183839680000000, 4475.38450594719870000000, 4193.33323079296950000000, 4618.97424602571480000000, 3831.28195759499480000000, 4432.82040442392370000000, 4745.12808909469820000000, 4256.92297282774050000000, 4516.92296646991240000000, 4058.97425971950000000000, 0.00000000000000000000, 4.00000000000000000000, 4.00000000000000000000, 3.00000000000000000000, 4.00000000000000000000, 2.00000000000000000000, 1.00000000000000000000, 4.00000000000000000000, 2.00000000000000000000, 0.00000000000000000000, 4.00000000000000000000, 4.00000000000000000000, 3.00000000000000000000, 0.00000000000000000000, 4.00000000000000000000, 4.00000000000000000000, 4.00000000000000000000, 1671.00000000000000000000, 1689.00000000000000000000, 0.00000000000000000000
53.00000000000000000000, 0.00000000000000000000, 4654.87168104534430000000, 4040.51272170940500000000, 4277.43579283895720000000, 4262.56399833082560000000, 4247.69220382269300000000, 4474.87168544691850000000, 4191.79476929212800000000, 4615.89732302403260000000, 3831.79477809527540000000, 4421.02553291747430000000, 4734.35885858880920000000, 4250.76912682437610000000, 4518.46142797075390000000, 4055.38451621753710000000, 0.00000000000000000000, 4.00000000000000000000, 4.00000000000000000000, 3.00000000000000000000, 4.00000000000000000000, 2.00000000000000000000, 1.00000000000000000000, 4.00000000000000000000, 2.00000000000000000000, 0.00000000000000000000, 4.00000000000000000000, 4.00000000000000000000, 3.00000000000000000000, 0.00000000000000000000, 4.00000000000000000000, 4.00000000000000000000, 4.00000000000000000000, 1673.00000000000000000000, 1688.00000000000000000000, 0.00000000000000000000
54.00000000000000000000, 0.00000000000000000000, 4653.84604004478390000000, 4031.79477320463770000000, 4274.87169033755530000000, 4265.12810083222760000000, 4240.51271681876730000000, 4471.79476244523540000000, 4183.58964128764090000000, 4607.69219501954650000000, 3830.76913709471460000000, 4403.07681540765950000000, 4720.51270508123800000000, 4242.56399881988910000000, 4519.99988947159450000000, 4045.64092671220900000000, 0.00000000000000000000, 4.00000000000000000000, 4.00000000000000000000, 3.00000000000000000000, 4.00000000000000000000, 2.00000000000000000000, 1.00000000000000000000, 4.00000000000000000000, 2.00000000000000000000, 0.00000000000000000000, 4.00000000000000000000, 4.00000000000000000000, 3.00000000000000000000, 0.00000000000000000000, 4.00000000000000000000, 4.00000000000000000000, 4.00000000000000000000, 1672.00000000000000000000, 1688.00000000000000000000, 0.00000000000000000000
55.00000000000000000000, 0.00000000000000000000, 4668.20501405263530000000, 4037.43579870772240000000, 4276.92297233867700000000, 4260.51271632970380000000, 4257.43579332802160000000, 4474.87168544691850000000, 4186.15374378904290000000, 4611.28193852150890000000, 3828.20503459331210000000, 4406.15373840934260000000, 4728.20501258544390000000, 4249.23066532353460000000, 4520.51270997187480000000, 4053.33323421641530000000, 0.00000000000000000000, 4.00000000000000000000, 4.00000000000000000000, 3.00000000000000000000, 4.00000000000000000000, 2.00000000000000000000, 1.00000000000000000000, 4.00000000000000000000, 2.00000000000000000000, 0.00000000000000000000, 4.00000000000000000000, 4.00000000000000000000, 3.00000000000000000000, 0.00000000000000000000, 4.00000000000000000000, 4.00000000000000000000, 4.00000000000000000000, 1672.00000000000000000000, 1688.00000000000000000000, 0.00000000000000000000
56.00000000000000000000, 0.00000000000000000000, 4673.84603955571950000000, 4050.76913171501340000000, 4279.48707484007900000000, 4264.10245983166710000000, 4240.51271681876730000000, 4474.87168544691850000000, 4192.30758979240820000000, 4616.92296402459400000000, 3830.76913709471460000000, 4416.92296891523070000000, 4739.99988409189340000000, 4256.41015232746030000000, 4518.97424847103410000000, 4061.53836222090190000000, 0.00000000000000000000, 4.00000000000000000000, 4.00000000000000000000, 3.00000000000000000000, 4.00000000000000000000, 2.00000000000000000000, 1.00000000000000000000, 4.00000000000000000000, 2.00000000000000000000, 0.00000000000000000000, 4.00000000000000000000, 4.00000000000000000000, 3.00000000000000000000, 0.00000000000000000000, 4.00000000000000000000, 4.00000000000000000000, 4.00000000000000000000, 1672.00000000000000000000, 1688.00000000000000000000, 0.00000000000000000000
57.00000000000000000000, 0.00000000000000000000, 4669.74347555347690000000, 4059.48708021978020000000, 4282.56399784176210000000, 4275.38451083783550000000, 4217.94861480642880000000, 4468.20501894327300000000, 4184.61528228820230000000, 4612.30757952207020000000, 3834.35888059667740000000, 4418.97425091635250000000, 4740.51270459217360000000, 4255.89733182718010000000, 4517.94860747047280000000, 4062.05118272118260000000, 0.00000000000000000000, 4.00000000000000000000, 4.00000000000000000000, 3.00000000000000000000, 4.00000000000000000000, 2.00000000000000000000, 1.00000000000000000000, 4.00000000000000000000, 2.00000000000000000000, 0.00000000000000000000, 4.00000000000000000000, 4.00000000000000000000, 3.00000000000000000000, 0.00000000000000000000, 4.00000000000000000000, 4.00000000000000000000, 4.00000000000000000000, 1672.00000000000000000000, 1687.00000000000000000000, 0.00000000000000000000
58.00000000000000000000, 0.00000000000000000000, 4677.94860355796300000000, 4057.43579821865890000000, 4288.20502334484630000000, 4271.28194683559290000000, 4249.74348582381480000000, 4467.69219844299190000000, 4182.05117978680030000000, 4611.28193852150890000000, 3832.82041909583590000000, 4427.69219942111980000000, 4746.15373009525870000000, 4262.05117783054540000000, 4520.51270997187480000000, 4073.33323372735140000000, 0.00000000000000000000, 4.00000000000000000000, 4.00000000000000000000, 3.00000000000000000000, 4.00000000000000000000, 2.00000000000000000000, 1.00000000000000000000, 4.00000000000000000000, 2.00000000000000000000, 0.00000000000000000000, 4.00000000000000000000, 4.00000000000000000000, 3.00000000000000000000, 0.00000000000000000000, 4.00000000000000000000, 4.00000000000000000000, 4.00000000000000000000, 1671.00000000000000000000, 1687.00000000000000000000, 0.00000000000000000000
59.00000000000000000000, 0.00000000000000000000, 4684.10244956132830000000, 4046.66656771276980000000, 4289.23066434540670000000, 4259.99989582942360000000, 4282.56399784176210000000, 4473.84604444635720000000, 4190.25630779128640000000, 4615.89732302403260000000, 3830.76913709471460000000, 4443.07681442953250000000, 4755.89731960058630000000, 4267.17938283334930000000, 4520.51270997187480000000, 4084.10246423324040000000, 0.00000000000000000000, 4.00000000000000000000, 4.00000000000000000000, 3.00000000000000000000, 4.00000000000000000000, 2.00000000000000000000, 1.00000000000000000000, 4.00000000000000000000, 2.00000000000000000000, 0.00000000000000000000, 4.00000000000000000000, 4.00000000000000000000, 3.00000000000000000000, 0.00000000000000000000, 4.00000000000000000000, 4.00000000000000000000, 4.00000000000000000000, 1673.00000000000000000000, 1687.00000000000000000000, 0.00000000000000000000
60.00000000000000000000, 0.00000000000000000000, 4674.35886005600060000000, 4047.17938821305050000000, 4282.05117734148100000000, 4265.12810083222760000000, 4257.43579332802160000000, 4475.38450594719870000000, 4187.17938478960420000000, 4613.33322052263070000000, 3832.82041909583590000000, 4441.53835292869100000000, 4752.30757609862390000000, 4261.02553682998400000000, 4518.46142797075390000000, 4077.94861822987510000000, 0.00000000000000000000, 4.00000000000000000000, 4.00000000000000000000, 3.00000000000000000000, 4.00000000000000000000, 2.00000000000000000000, 1.00000000000000000000, 4.00000000000000000000, 2.00000000000000000000, 0.00000000000000000000, 4.00000000000000000000, 4.00000000000000000000, 3.00000000000000000000, 0.00000000000000000000, 4.00000000000000000000, 4.00000000000000000000, 4.00000000000000000000, 1672.00000000000000000000, 1688.00000000000000000000, 0.00000000000000000000
61.00000000000000000000, 0.00000000000000000000, 4662.56398854955020000000, 4057.94861871893910000000, 4279.48707484007900000000, 4270.76912633531170000000, 4241.02553731904750000000, 4473.33322394607690000000, 4184.61528228820230000000, 4612.30757952207020000000, 3832.30759859555560000000, 4430.76912242280200000000, 4740.51270459217360000000, 4257.43579332802160000000, 4518.46142797075390000000, 4070.25631072566920000000, 0.00000000000000000000, 4.00000000000000000000, 4.00000000000000000000, 3.00000000000000000000, 4.00000000000000000000, 2.00000000000000000000, 1.00000000000000000000, 4.00000000000000000000, 2.00000000000000000000, 0.00000000000000000000, 4.00000000000000000000, 4.00000000000000000000, 3.00000000000000000000, 0.00000000000000000000, 4.00000000000000000000, 4.00000000000000000000, 4.00000000000000000000, 1673.00000000000000000000, 1688.00000000000000000000, 0.00000000000000000000
62.00000000000000000000, 0.00000000000000000000, 4655.89732204590560000000, 4050.76913171501340000000, 4280.51271584064030000000, 4262.56399833082560000000, 4262.05117783054540000000, 4474.35886494663740000000, 4194.35887179352990000000, 4616.92296402459400000000, 3830.25631659443390000000, 4434.35886592476530000000, 4737.94860209077160000000, 4260.51271632970380000000, 4514.35886396851040000000, 4070.25631072566920000000, 0.00000000000000000000, 4.00000000000000000000, 4.00000000000000000000, 3.00000000000000000000, 4.00000000000000000000, 2.00000000000000000000, 1.00000000000000000000, 4.00000000000000000000, 2.00000000000000000000, 0.00000000000000000000, 4.00000000000000000000, 4.00000000000000000000, 3.00000000000000000000, 0.00000000000000000000, 4.00000000000000000000, 4.00000000000000000000, 4.00000000000000000000, 1673.00000000000000000000, 1688.00000000000000000000, 0.00000000000000000000
63.00000000000000000000, 0.00000000000000000000, 4652.82039904422250000000, 4033.33323470547930000000, 4278.46143383951860000000, 4260.51271632970380000000, 4262.05117783054540000000, 4474.87168544691850000000, 4197.43579479521210000000, 4617.43578452487420000000, 3831.79477809527540000000, 4440.51271192813060000000, 4745.64090959497840000000, 4260.51271632970380000000, 4515.38450496907080000000, 4071.28195172623010000000, 0.00000000000000000000, 4.00000000000000000000, 4.00000000000000000000, 3.00000000000000000000, 4.00000000000000000000, 2.00000000000000000000, 1.00000000000000000000, 4.00000000000000000000, 2.00000000000000000000, 0.00000000000000000000, 4.00000000000000000000, 4.00000000000000000000, 3.00000000000000000000, 0.00000000000000000000, 4.00000000000000000000, 4.00000000000000000000, 4.00000000000000000000, 1674.00000000000000000000, 1687.00000000000000000000, 0.00000000000000000000
64.00000000000000000000, 0.00000000000000000000, 4655.89732204590560000000, 4033.33323470547930000000, 4279.99989534035920000000, 4267.69220333362950000000, 4245.64092182157130000000, 4474.87168544691850000000, 4188.71784629044580000000, 4614.87168202347220000000, 3832.30759859555560000000, 4445.64091693093450000000, 4756.92296060114770000000, 4263.58963933138600000000, 4520.51270997187480000000, 4076.41015672903400000000, 314.00000000000000000000, 4.00000000000000000000, 4.00000000000000000000, 3.00000000000000000000, 4.00000000000000000000, 2.00000000000000000000, 1.00000000000000000000, 4.00000000000000000000, 2.00000000000000000000, 0.00000000000000000000, 4.00000000000000000000, 4.00000000000000000000, 3.00000000000000000000, 0.00000000000000000000, 4.00000000000000000000, 4.00000000000000000000, 4.00000000000000000000, 1673.00000000000000000000, 1687.00000000000000000000, 0.00000000000000000000
65.00000000000000000000, 0.00000000000000000000, 4658.46142454730760000000, 4044.10246521136790000000, 4287.17938234428580000000, 4268.20502383390980000000, 4244.61528082101090000000, 4474.87168544691850000000, 4183.07682078736070000000, 4612.82040002235040000000, 3832.30759859555560000000, 4453.33322443514040000000, 4765.12808860563380000000, 4269.74348533475130000000, 4520.51270997187480000000, 4084.10246423324040000000, 401.00000000000000000000, 4.00000000000000000000, 4.00000000000000000000, 3.00000000000000000000, 4.00000000000000000000, 2.00000000000000000000, 1.00000000000000000000, 4.00000000000000000000, 2.00000000000000000000, 0.00000000000000000000, 4.00000000000000000000, 4.00000000000000000000, 3.00000000000000000000, 0.00000000000000000000, 4.00000000000000000000, 4.00000000000000000000, 4.00000000000000000000, 1674.00000000000000000000, 1686.00000000000000000000, 0.00000000000000000000
66.00000000000000000000, 0.00000000000000000000, 4653.33321954450280000000, 4045.64092671220900000000, 4288.71784384512650000000, 4266.66656233306910000000, 4254.35887032633850000000, 4473.33322394607690000000, 4184.10246178792200000000, 4608.71783602010690000000, 3832.30759859555560000000, 4444.10245543009300000000, 4767.17937060675560000000, 4267.69220333362950000000, 4519.99988947159450000000, 4085.64092573408150000000, 419.00000000000000000000, 4.00000000000000000000, 4.00000000000000000000, 3.00000000000000000000, 4.00000000000000000000, 2.00000000000000000000, 1.00000000000000000000, 4.00000000000000000000, 2.00000000000000000000, 0.00000000000000000000, 4.00000000000000000000, 4.00000000000000000000, 3.00000000000000000000, 0.00000000000000000000, 4.00000000000000000000, 4.00000000000000000000, 4.00000000000000000000, 1671.00000000000000000000, 1687.00000000000000000000, 0.00000000000000000000
67.00000000000000000000, 0.00000000000000000000, 4649.23065554226010000000, 4041.53836270996590000000, 4282.56399784176210000000, 4267.69220333362950000000, 4262.05117783054540000000, 4473.33322394607690000000, 4184.61528228820230000000, 4606.15373351870490000000, 3832.30759859555560000000, 4431.28194292308220000000, 4766.66655010647540000000, 4261.02553682998400000000, 4519.48706897131430000000, 4081.53836173183840000000, 455.00000000000000000000, 4.00000000000000000000, 4.00000000000000000000, 3.00000000000000000000, 4.00000000000000000000, 2.00000000000000000000, 1.00000000000000000000, 4.00000000000000000000, 2.00000000000000000000, 0.00000000000000000000, 4.00000000000000000000, 4.00000000000000000000, 3.00000000000000000000, 0.00000000000000000000, 4.00000000000000000000, 4.00000000000000000000, 4.00000000000000000000, 1673.00000000000000000000, 1687.00000000000000000000, 0.00000000000000000000
68.00000000000000000000, 0.00000000000000000000, 4646.66655304085820000000, 4034.35887570603970000000, 4278.46143383951860000000, 4257.43579332802160000000, 4245.12810132129110000000, 4474.35886494663740000000, 4183.07682078736070000000, 4603.58963101730300000000, 3831.79477809527540000000, 4441.02553242841080000000, 4762.56398610423180000000, 4258.97425482886230000000, 4519.48706897131430000000, 4078.46143873015580000000, 206.00000000000000000000, 4.00000000000000000000, 4.00000000000000000000, 3.00000000000000000000, 4.00000000000000000000, 2.00000000000000000000, 1.00000000000000000000, 4.00000000000000000000, 2.00000000000000000000, 0.00000000000000000000, 4.00000000000000000000, 4.00000000000000000000, 3.00000000000000000000, 0.00000000000000000000, 4.00000000000000000000, 4.00000000000000000000, 4.00000000000000000000, 1670.00000000000000000000, 1686.00000000000000000000, 0.00000000000000000000
69.00000000000000000000, 0.00000000000000000000, 4633.33322003356720000000, 4015.89733769594480000000, 4270.76912633531170000000, 4247.69220382269300000000, 4212.30758930334470000000, 4472.82040344579670000000, 4176.41015428371520000000, 4601.02552851590100000000, 3832.30759859555560000000, 4441.53835292869100000000, 4752.30757609862390000000, 4253.33322932577810000000, 4519.48706897131430000000, 4070.25631072566920000000, 162.00000000000000000000, 4.00000000000000000000, 4.00000000000000000000, 3.00000000000000000000, 4.00000000000000000000, 2.00000000000000000000, 1.00000000000000000000, 4.00000000000000000000, 2.00000000000000000000, 0.00000000000000000000, 4.00000000000000000000, 4.00000000000000000000, 3.00000000000000000000, 0.00000000000000000000, 4.00000000000000000000, 4.00000000000000000000, 4.00000000000000000000, 1671.00000000000000000000, 1687.00000000000000000000, 0.00000000000000000000
70.00000000000000000000, 0.00000000000000000000, 4621.02552802683660000000, 4002.56400468865420000000, 4260.51271632970380000000, 4255.89733182718010000000, 4233.33322981484160000000, 4473.84604444635720000000, 4174.35887228259340000000, 4604.10245151758320000000, 3832.82041909583590000000, 4431.28194292308220000000, 4750.76911459778240000000, 4248.71784482325440000000, 4518.97424847103410000000, 4061.53836222090190000000, 462.00000000000000000000, 4.00000000000000000000, 4.00000000000000000000, 3.00000000000000000000, 4.00000000000000000000, 2.00000000000000000000, 1.00000000000000000000, 4.00000000000000000000, 2.00000000000000000000, 0.00000000000000000000, 4.00000000000000000000, 4.00000000000000000000, 3.00000000000000000000, 0.00000000000000000000, 4.00000000000000000000, 4.00000000000000000000, 4.00000000000000000000, 1671.00000000000000000000, 1686.00000000000000000000, 0.00000000000000000000
71.00000000000000000000, 0.00000000000000000000, 4627.17937403020190000000, 4012.30759419398190000000, 4263.07681883110580000000, 4257.94861382830190000000, 4281.02553634092060000000, 4475.89732644747890000000, 4184.61528228820230000000, 4612.82040002235040000000, 3833.33323959611650000000, 4449.23066043289690000000, 4764.10244760507340000000, 4256.92297282774050000000, 4519.48706897131430000000, 4070.25631072566920000000, 215.00000000000000000000, 4.00000000000000000000, 4.00000000000000000000, 3.00000000000000000000, 4.00000000000000000000, 2.00000000000000000000, 1.00000000000000000000, 4.00000000000000000000, 2.00000000000000000000, 0.00000000000000000000, 4.00000000000000000000, 4.00000000000000000000, 3.00000000000000000000, 0.00000000000000000000, 4.00000000000000000000, 4.00000000000000000000, 4.00000000000000000000, 1670.00000000000000000000, 1689.00000000000000000000, 0.00000000000000000000
72.00000000000000000000, 0.00000000000000000000, 4632.30757903300580000000, 4016.92297869650570000000, 4269.23066483447110000000, 4252.82040882549790000000, 4268.71784433419090000000, 4474.87168544691850000000, 4188.71784629044580000000, 4616.92296402459400000000, 3832.82041909583590000000, 4466.15373694215120000000, 4765.64090910591400000000, 4262.56399833082560000000, 4518.97424847103410000000, 4079.48707973071670000000, 0.00000000000000000000, 4.00000000000000000000, 4.00000000000000000000, 3.00000000000000000000, 4.00000000000000000000, 2.00000000000000000000, 1.00000000000000000000, 4.00000000000000000000, 2.00000000000000000000, 0.00000000000000000000, 4.00000000000000000000, 4.00000000000000000000, 3.00000000000000000000, 0.00000000000000000000, 4.00000000000000000000, 4.00000000000000000000, 4.00000000000000000000, 1672.00000000000000000000, 1689.00000000000000000000, 0.00000000000000000000
73.00000000000000000000, 0.00000000000000000000, 4627.69219453048210000000, 4007.17938919117800000000, 4263.07681883110580000000, 4255.89733182718010000000, 4241.02553731904750000000, 4475.38450594719870000000, 4183.07682078736070000000, 4615.38450252375240000000, 3832.30759859555560000000, 4456.41014743682260000000, 4757.43578110142790000000, 4257.94861382830190000000, 4519.99988947159450000000, 4074.87169522819290000000, 413.00000000000000000000, 4.00000000000000000000, 4.00000000000000000000, 3.00000000000000000000, 4.00000000000000000000, 2.00000000000000000000, 1.00000000000000000000, 4.00000000000000000000, 2.00000000000000000000, 0.00000000000000000000, 4.00000000000000000000, 4.00000000000000000000, 3.00000000000000000000, 0.00000000000000000000, 4.00000000000000000000, 4.00000000000000000000, 4.00000000000000000000, 1671.00000000000000000000, 1691.00000000000000000000, 0.00000000000000000000
74.00000000000000000000, 0.00000000000000000000, 4628.71783553104340000000, 4014.87169669538390000000, 4256.41015232746030000000, 4255.89733182718010000000, 4246.66656282213260000000, 4476.92296744803930000000, 4185.12810278848250000000, 4614.87168202347220000000, 3831.79477809527540000000, 4459.48707043850570000000, 4762.05116560395160000000, 4259.99989582942360000000, 4519.99988947159450000000, 4075.38451572847320000000, 0.00000000000000000000, 4.00000000000000000000, 4.00000000000000000000, 3.00000000000000000000, 4.00000000000000000000, 2.00000000000000000000, 1.00000000000000000000, 4.00000000000000000000, 2.00000000000000000000, 0.00000000000000000000, 4.00000000000000000000, 4.00000000000000000000, 3.00000000000000000000, 0.00000000000000000000, 4.00000000000000000000, 4.00000000000000000000, 4.00000000000000000000, 1672.00000000000000000000, 1691.00000000000000000000, 0.00000000000000000000
75.00000000000000000000, 0.00000000000000000000, 4628.20501503076230000000, 4019.99990169818830000000, 4256.41015232746030000000, 4253.33322932577810000000, 4253.84604982605830000000, 4474.87168544691850000000, 4194.35887179352990000000, 4616.41014352431280000000, 3831.79477809527540000000, 4468.71783944355320000000, 4769.23065260787730000000, 4265.64092133250780000000, 4518.97424847103410000000, 4084.61528473352060000000, 414.00000000000000000000, 4.00000000000000000000, 4.00000000000000000000, 3.00000000000000000000, 4.00000000000000000000, 2.00000000000000000000, 1.00000000000000000000, 4.00000000000000000000, 2.00000000000000000000, 0.00000000000000000000, 4.00000000000000000000, 4.00000000000000000000, 3.00000000000000000000, 0.00000000000000000000, 4.00000000000000000000, 4.00000000000000000000, 4.00000000000000000000, 1672.00000000000000000000, 1691.00000000000000000000, 0.00000000000000000000
76.00000000000000000000, 0.00000000000000000000, 4623.07681002795830000000, 4005.64092769033640000000, 4258.46143432858210000000, 4263.58963933138600000000, 4250.76912682437610000000, 4474.35886494663740000000, 4196.41015379465170000000, 4622.05116902739790000000, 3831.79477809527540000000, 4461.02553193934640000000, 4762.56398610423180000000, 4264.61528033194740000000, 4519.48706897131430000000, 4088.71784873576420000000, 393.00000000000000000000, 4.00000000000000000000, 4.00000000000000000000, 3.00000000000000000000, 4.00000000000000000000, 2.00000000000000000000, 1.00000000000000000000, 4.00000000000000000000, 2.00000000000000000000, 0.00000000000000000000, 4.00000000000000000000, 4.00000000000000000000, 3.00000000000000000000, 0.00000000000000000000, 4.00000000000000000000, 4.00000000000000000000, 4.00000000000000000000, 1674.00000000000000000000, 1690.00000000000000000000, 0.00000000000000000000
77.00000000000000000000, 0.00000000000000000000, 4625.12809202908010000000, 4008.71785069201910000000, 4257.43579332802160000000, 4269.74348533475130000000, 4250.76912682437610000000, 4476.92296744803930000000, 4197.94861529549330000000, 4624.10245102851970000000, 3831.79477809527540000000, 4464.10245494102950000000, 4759.99988360282990000000, 4263.07681883110580000000, 4518.97424847103410000000, 4086.15374623436220000000, 286.00000000000000000000, 4.00000000000000000000, 4.00000000000000000000, 3.00000000000000000000, 4.00000000000000000000, 2.00000000000000000000, 1.00000000000000000000, 4.00000000000000000000, 2.00000000000000000000, 0.00000000000000000000, 4.00000000000000000000, 4.00000000000000000000, 3.00000000000000000000, 0.00000000000000000000, 4.00000000000000000000, 4.00000000000000000000, 4.00000000000000000000, 1673.00000000000000000000, 1690.00000000000000000000, 0.00000000000000000000
78.00000000000000000000, 0.00000000000000000000, 4625.12809202908010000000, 4020.51272219846850000000, 4248.71784482325440000000, 4257.94861382830190000000, 4245.12810132129110000000, 4474.87168544691850000000, 4196.92297429493190000000, 4617.43578452487420000000, 3833.33323959611650000000, 4470.25630094439480000000, 4761.53834510367140000000, 4263.07681883110580000000, 4518.46142797075390000000, 4084.10246423324040000000, 0.00000000000000000000, 4.00000000000000000000, 4.00000000000000000000, 3.00000000000000000000, 4.00000000000000000000, 2.00000000000000000000, 1.00000000000000000000, 4.00000000000000000000, 2.00000000000000000000, 0.00000000000000000000, 4.00000000000000000000, 4.00000000000000000000, 3.00000000000000000000, 0.00000000000000000000, 4.00000000000000000000, 4.00000000000000000000, 4.00000000000000000000, 1674.00000000000000000000, 1690.00000000000000000000, 0.00000000000000000000
79.00000000000000000000, 0.00000000000000000000, 4622.56398952767810000000, 4012.30759419398190000000, 4244.10246032073060000000, 4250.25630632409500000000, 4246.15374232185240000000, 4472.82040344579670000000, 4188.20502579016470000000, 4613.84604102291090000000, 3833.84606009639670000000, 4457.94860893766420000000, 4757.94860160170810000000, 4258.46143432858210000000, 4518.97424847103410000000, 4080.51272073127760000000, 414.00000000000000000000, 4.00000000000000000000, 4.00000000000000000000, 3.00000000000000000000, 4.00000000000000000000, 2.00000000000000000000, 1.00000000000000000000, 4.00000000000000000000, 2.00000000000000000000, 0.00000000000000000000, 4.00000000000000000000, 4.00000000000000000000, 3.00000000000000000000, 0.00000000000000000000, 4.00000000000000000000, 4.00000000000000000000, 4.00000000000000000000, 1673.00000000000000000000, 1688.00000000000000000000, 0.00000000000000000000
80.00000000000000000000, 0.00000000000000000000, 4627.17937403020190000000, 4008.20503019173880000000, 4249.74348582381480000000, 4248.71784482325440000000, 4258.46143432858210000000, 4476.92296744803930000000, 4188.20502579016470000000, 4617.94860502515440000000, 3832.30759859555560000000, 4458.97424993822550000000, 4760.51270410311010000000, 4259.48707532914250000000, 4516.41014596963210000000, 4082.05118223211870000000, 393.00000000000000000000, 4.00000000000000000000, 4.00000000000000000000, 3.00000000000000000000, 4.00000000000000000000, 2.00000000000000000000, 1.00000000000000000000, 4.00000000000000000000, 2.00000000000000000000, 0.00000000000000000000, 4.00000000000000000000, 4.00000000000000000000, 3.00000000000000000000, 0.00000000000000000000, 4.00000000000000000000, 4.00000000000000000000, 4.00000000000000000000, 1673.00000000000000000000, 1689.00000000000000000000, 0.00000000000000000000
81.00000000000000000000, 0.00000000000000000000, 4628.20501503076230000000, 4009.74349169257990000000, 4249.74348582381480000000, 4247.69220382269300000000, 4254.35887032633850000000, 4477.43578794832050000000, 4197.94861529549330000000, 4618.97424602571480000000, 3831.79477809527540000000, 4470.25630094439480000000, 4768.71783210759710000000, 4267.17938283334930000000, 4517.43578697019260000000, 4087.17938723492310000000, 286.00000000000000000000, 4.00000000000000000000, 4.00000000000000000000, 3.00000000000000000000, 4.00000000000000000000, 2.00000000000000000000, 1.00000000000000000000, 4.00000000000000000000, 2.00000000000000000000, 0.00000000000000000000, 4.00000000000000000000, 4.00000000000000000000, 3.00000000000000000000, 0.00000000000000000000, 4.00000000000000000000, 4.00000000000000000000, 4.00000000000000000000, 1674.00000000000000000000, 1687.00000000000000000000, 0.00000000000000000000
82.00000000000000000000, 0.00000000000000000000, 4616.41014352431280000000, 3996.92297918556960000000, 4238.97425531792670000000, 4246.66656282213260000000, 4253.33322932577810000000, 4473.84604444635720000000, 4203.07682029829720000000, 4617.94860502515440000000, 3832.82041909583590000000, 4466.15373694215120000000, 4768.71783210759710000000, 4264.61528033194740000000, 4518.46142797075390000000, 4086.66656673464240000000, 0.00000000000000000000, 4.00000000000000000000, 4.00000000000000000000, 3.00000000000000000000, 4.00000000000000000000, 2.00000000000000000000, 1.00000000000000000000, 4.00000000000000000000, 2.00000000000000000000, 0.00000000000000000000, 4.00000000000000000000, 4.00000000000000000000, 3.00000000000000000000, 0.00000000000000000000, 4.00000000000000000000, 4.00000000000000000000, 4.00000000000000000000, 1672.00000000000000000000, 1689.00000000000000000000, 0.00000000000000000000
83.00000000000000000000, 0.00000000000000000000, 4608.71783602010690000000, 3993.33323568360670000000, 4232.82040931456140000000, 4246.15374232185240000000, 4248.20502432297420000000, 4473.84604444635720000000, 4207.17938430054070000000, 4625.12809202908010000000, 3832.82041909583590000000, 4463.07681394046810000000, 4763.58962710479320000000, 4256.41015232746030000000, 4519.48706897131430000000, 4076.41015672903400000000, 414.00000000000000000000, 4.00000000000000000000, 4.00000000000000000000, 3.00000000000000000000, 4.00000000000000000000, 2.00000000000000000000, 1.00000000000000000000, 4.00000000000000000000, 2.00000000000000000000, 0.00000000000000000000, 4.00000000000000000000, 4.00000000000000000000, 3.00000000000000000000, 0.00000000000000000000, 4.00000000000000000000, 4.00000000000000000000, 4.00000000000000000000, 1673.00000000000000000000, 1687.00000000000000000000, 0.00000000000000000000
84.00000000000000000000, 0.00000000000000000000, 4603.07681051702180000000, 3997.94862018613050000000, 4229.23066581259810000000, 4249.23066532353460000000, 4222.56399930895260000000, 4473.84604444635720000000, 4206.15374329997940000000, 4627.17937403020190000000, 3832.30759859555560000000, 4461.02553193934640000000, 4758.97424260226940000000, 4252.30758832521680000000, 4518.46142797075390000000, 4062.05118272118260000000, 393.00000000000000000000, 4.00000000000000000000, 4.00000000000000000000, 3.00000000000000000000, 4.00000000000000000000, 2.00000000000000000000, 1.00000000000000000000, 4.00000000000000000000, 2.00000000000000000000, 0.00000000000000000000, 4.00000000000000000000, 4.00000000000000000000, 3.00000000000000000000, 0.00000000000000000000, 4.00000000000000000000, 4.00000000000000000000, 4.00000000000000000000, 1673.00000000000000000000, 1687.00000000000000000000, 0.00000000000000000000
85.00000000000000000000, 0.00000000000000000000, 4590.25629801001200000000, 3988.71785118108300000000, 4225.12810181035550000000, 4247.69220382269300000000, 4225.64092231063570000000, 4471.28194194495520000000, 4198.97425629605370000000, 4622.56398952767810000000, 3831.79477809527540000000, 4451.28194243401870000000, 4751.28193509806260000000, 4248.20502432297420000000, 4514.35886396851040000000, 4058.46143921921930000000, 286.00000000000000000000, 4.00000000000000000000, 4.00000000000000000000, 3.00000000000000000000, 4.00000000000000000000, 2.00000000000000000000, 1.00000000000000000000, 4.00000000000000000000, 2.00000000000000000000, 0.00000000000000000000, 4.00000000000000000000, 4.00000000000000000000, 3.00000000000000000000, 0.00000000000000000000, 4.00000000000000000000, 4.00000000000000000000, 4.00000000000000000000, 1673.00000000000000000000, 1687.00000000000000000000, 0.00000000000000000000
86.00000000000000000000, 0.00000000000000000000, 4594.35886201225550000000, 3987.69221018052210000000, 4230.25630681315940000000, 4245.64092182157130000000, 4268.71784433419090000000, 4474.87168544691850000000, 4204.61528179913880000000, 4623.58963052823860000000, 3831.28195759499480000000, 4453.84604493542070000000, 4747.17937109581910000000, 4250.25630632409500000000, 4517.94860747047280000000, 4065.12810572286480000000, 0.00000000000000000000, 4.00000000000000000000, 4.00000000000000000000, 3.00000000000000000000, 4.00000000000000000000, 2.00000000000000000000, 1.00000000000000000000, 4.00000000000000000000, 2.00000000000000000000, 0.00000000000000000000, 4.00000000000000000000, 4.00000000000000000000, 3.00000000000000000000, 0.00000000000000000000, 4.00000000000000000000, 4.00000000000000000000, 4.00000000000000000000, 1672.00000000000000000000, 1687.00000000000000000000, 0.00000000000000000000
87.00000000000000000000, 0.00000000000000000000, 4603.58963101730300000000, 4004.10246618949530000000, 4233.84605031512180000000, 4244.61528082101090000000, 4283.07681834204230000000, 4481.02553145028290000000, 4214.35887130446640000000, 4630.25629703188410000000, 3832.82041909583590000000, 4464.10245494102950000000, 4753.33321709918440000000, 4255.38451132689990000000, 4522.56399197299650000000, 4069.23066972510830000000, 414.00000000000000000000, 4.00000000000000000000, 4.00000000000000000000, 3.00000000000000000000, 4.00000000000000000000, 2.00000000000000000000, 1.00000000000000000000, 4.00000000000000000000, 2.00000000000000000000, 0.00000000000000000000, 4.00000000000000000000, 4.00000000000000000000, 3.00000000000000000000, 0.00000000000000000000, 4.00000000000000000000, 4.00000000000000000000, 4.00000000000000000000, 1672.00000000000000000000, 1686.00000000000000000000, 0.00000000000000000000
88.00000000000000000000, 0.00000000000000000000, 4601.02552851590100000000, 4006.15374819061710000000, 4228.20502481203770000000, 4243.58963982045040000000, 4253.33322932577810000000, 4478.46142894888090000000, 4206.15374329997940000000, 4628.20501503076230000000, 3832.82041909583590000000, 4465.12809594158990000000, 4761.02552460339030000000, 4255.38451132689990000000, 4519.99988947159450000000, 4068.20502872454740000000, 393.00000000000000000000, 4.00000000000000000000, 4.00000000000000000000, 3.00000000000000000000, 4.00000000000000000000, 2.00000000000000000000, 1.00000000000000000000, 4.00000000000000000000, 2.00000000000000000000, 0.00000000000000000000, 4.00000000000000000000, 4.00000000000000000000, 3.00000000000000000000, 0.00000000000000000000, 4.00000000000000000000, 4.00000000000000000000, 4.00000000000000000000, 1671.00000000000000000000, 1688.00000000000000000000, 0.00000000000000000000
89.00000000000000000000, 0.00000000000000000000, 4599.48706701505940000000, 4002.56400468865420000000, 4227.17938381147630000000, 4245.64092182157130000000, 4243.07681932016930000000, 4472.82040344579670000000, 4194.87169229381020000000, 4619.48706652599590000000, 3831.79477809527540000000, 4458.46142943794440000000, 4762.05116560395160000000, 4252.30758832521680000000, 4516.41014596963210000000, 4067.69220822426720000000, 286.00000000000000000000, 4.00000000000000000000, 4.00000000000000000000, 3.00000000000000000000, 4.00000000000000000000, 2.00000000000000000000, 1.00000000000000000000, 4.00000000000000000000, 2.00000000000000000000, 0.00000000000000000000, 4.00000000000000000000, 4.00000000000000000000, 3.00000000000000000000, 0.00000000000000000000, 4.00000000000000000000, 4.00000000000000000000, 4.00000000000000000000, 1672.00000000000000000000, 1688.00000000000000000000, 0.00000000000000000000
90.00000000000000000000, 0.00000000000000000000, 4603.58963101730300000000, 4007.17938919117800000000, 4231.79476831400010000000, 4248.20502432297420000000, 4253.33322932577810000000, 4472.82040344579670000000, 4192.82041029268840000000, 4616.41014352431280000000, 3831.79477809527540000000, 4448.71783993261670000000, 4749.23065309694080000000, 4248.20502432297420000000, 4514.87168446879060000000, 4063.58964422202370000000, 0.00000000000000000000, 4.00000000000000000000, 4.00000000000000000000, 3.00000000000000000000, 4.00000000000000000000, 2.00000000000000000000, 1.00000000000000000000, 4.00000000000000000000, 2.00000000000000000000, 0.00000000000000000000, 4.00000000000000000000, 4.00000000000000000000, 3.00000000000000000000, 0.00000000000000000000, 4.00000000000000000000, 4.00000000000000000000, 4.00000000000000000000, 1671.00000000000000000000, 1687.00000000000000000000, 0.00000000000000000000
91.00000000000000000000, 0.00000000000000000000, 4604.10245151758320000000, 3999.99990218725180000000, 4233.33322981484160000000, 4246.66656282213260000000, 4242.05117831960890000000, 4474.87168544691850000000, 4187.69220528988440000000, 4615.38450252375240000000, 3832.82041909583590000000, 4435.38450692532570000000, 4735.89732008964980000000, 4245.64092182157130000000, 4519.99988947159450000000, 4056.92297771837820000000, 414.00000000000000000000, 4.00000000000000000000, 4.00000000000000000000, 3.00000000000000000000, 4.00000000000000000000, 2.00000000000000000000, 1.00000000000000000000, 4.00000000000000000000, 2.00000000000000000000, 0.00000000000000000000, 4.00000000000000000000, 4.00000000000000000000, 3.00000000000000000000, 0.00000000000000000000, 4.00000000000000000000, 4.00000000000000000000, 4.00000000000000000000, 1671.00000000000000000000, 1689.00000000000000000000, 0.00000000000000000000
92.00000000000000000000, 0.00000000000000000000, 4600.51270801561990000000, 3985.64092817940040000000, 4226.15374281091590000000, 4245.12810132129110000000, 4237.43579381708510000000, 4472.82040344579670000000, 4183.07682078736070000000, 4614.87168202347220000000, 3831.28195759499480000000, 4429.74348142224150000000, 4737.43578159049140000000, 4248.20502432297420000000, 4523.58963297355790000000, 4058.97425971950000000000, 393.00000000000000000000, 4.00000000000000000000, 4.00000000000000000000, 3.00000000000000000000, 4.00000000000000000000, 2.00000000000000000000, 1.00000000000000000000, 4.00000000000000000000, 2.00000000000000000000, 0.00000000000000000000, 4.00000000000000000000, 4.00000000000000000000, 3.00000000000000000000, 0.00000000000000000000, 4.00000000000000000000, 4.00000000000000000000, 4.00000000000000000000, 1672.00000000000000000000, 1688.00000000000000000000, 0.00000000000000000000
93.00000000000000000000, 0.00000000000000000000, 4599.48706701505940000000, 3990.25631268192410000000, 4223.07681980923370000000, 4246.66656282213260000000, 4264.10245983166710000000, 4472.30758294551560000000, 4187.17938478960420000000, 4614.87168202347220000000, 3831.28195759499480000000, 4432.30758392364350000000, 4748.20501209638040000000, 4252.30758832521680000000, 4519.48706897131430000000, 4068.20502872454740000000, 286.00000000000000000000, 4.00000000000000000000, 4.00000000000000000000, 3.00000000000000000000, 4.00000000000000000000, 2.00000000000000000000, 1.00000000000000000000, 4.00000000000000000000, 2.00000000000000000000, 0.00000000000000000000, 4.00000000000000000000, 4.00000000000000000000, 3.00000000000000000000, 0.00000000000000000000, 4.00000000000000000000, 4.00000000000000000000, 4.00000000000000000000, 1671.00000000000000000000, 1689.00000000000000000000, 0.00000000000000000000
94.00000000000000000000, 0.00000000000000000000, 4603.07681051702180000000, 4002.05118418837360000000, 4229.74348631287920000000, 4247.69220382269300000000, 4272.82040833643350000000, 4475.38450594719870000000, 4191.79476929212800000000, 4616.41014352431280000000, 3833.33323959611650000000, 4438.46142992700880000000, 4754.35885809974570000000, 4256.92297282774050000000, 4515.38450496907080000000, 4077.94861822987510000000, 0.00000000000000000000, 4.00000000000000000000, 4.00000000000000000000, 3.00000000000000000000, 4.00000000000000000000, 2.00000000000000000000, 1.00000000000000000000, 4.00000000000000000000, 2.00000000000000000000, 0.00000000000000000000, 4.00000000000000000000, 4.00000000000000000000, 3.00000000000000000000, 0.00000000000000000000, 4.00000000000000000000, 4.00000000000000000000, 4.00000000000000000000, 1672.00000000000000000000, 1689.00000000000000000000, 0.00000000000000000000
95.00000000000000000000, 0.00000000000000000000, 4604.61527201786340000000, 4003.58964568921510000000, 4225.64092231063570000000, 4245.64092182157130000000, 4244.10246032073060000000, 4472.30758294551560000000, 4187.69220528988440000000, 4616.92296402459400000000, 3832.82041909583590000000, 4437.43578892644750000000, 4752.30757609862390000000, 4257.43579332802160000000, 4517.43578697019260000000, 4077.94861822987510000000, 414.00000000000000000000, 4.00000000000000000000, 4.00000000000000000000, 3.00000000000000000000, 4.00000000000000000000, 2.00000000000000000000, 1.00000000000000000000, 4.00000000000000000000, 2.00000000000000000000, 0.00000000000000000000, 4.00000000000000000000, 4.00000000000000000000, 3.00000000000000000000, 0.00000000000000000000, 4.00000000000000000000, 4.00000000000000000000, 4.00000000000000000000, 1672.00000000000000000000, 1689.00000000000000000000, 0.00000000000000000000
96.00000000000000000000, 0.00000000000000000000, 4602.05116951646140000000, 3996.41015868528890000000, 4217.94861480642880000000, 4246.66656282213260000000, 4236.92297331680490000000, 4467.69219844299190000000, 4182.56400028708050000000, 4615.89732302403260000000, 3830.76913709471460000000, 4429.23066092196130000000, 4742.56398659329530000000, 4253.33322932577810000000, 4519.48706897131430000000, 4070.76913122594940000000, 393.00000000000000000000, 4.00000000000000000000, 4.00000000000000000000, 3.00000000000000000000, 4.00000000000000000000, 2.00000000000000000000, 1.00000000000000000000, 4.00000000000000000000, 2.00000000000000000000, 0.00000000000000000000, 4.00000000000000000000, 4.00000000000000000000, 3.00000000000000000000, 0.00000000000000000000, 4.00000000000000000000, 4.00000000000000000000, 4.00000000000000000000, 1673.00000000000000000000, 1689.00000000000000000000, 0.00000000000000000000
97.00000000000000000000, 0.00000000000000000000, 4602.56399001674160000000, 3985.12810767911970000000, 4219.99989680755060000000, 4250.76912682437610000000, 4254.87169082661880000000, 4469.74348044411360000000, 4186.15374378904290000000, 4617.43578452487420000000, 3831.79477809527540000000, 4428.20501992140000000000, 4739.48706359161320000000, 4251.79476782493660000000, 4518.46142797075390000000, 4070.25631072566920000000, 286.00000000000000000000, 4.00000000000000000000, 4.00000000000000000000, 3.00000000000000000000, 4.00000000000000000000, 2.00000000000000000000, 1.00000000000000000000, 4.00000000000000000000, 2.00000000000000000000, 0.00000000000000000000, 4.00000000000000000000, 4.00000000000000000000, 3.00000000000000000000, 0.00000000000000000000, 4.00000000000000000000, 4.00000000000000000000, 4.00000000000000000000, 1672.00000000000000000000, 1690.00000000000000000000, 0.00000000000000000000
98.00000000000000000000, 0.00000000000000000000, 4597.94860551421790000000, 3977.43580017491380000000, 4216.92297380586840000000, 4248.20502432297420000000, 4252.30758832521680000000, 4474.87168544691850000000, 4189.23066679072600000000, 4617.43578452487420000000, 3832.82041909583590000000, 4427.69219942111980000000, 4744.61526859441710000000, 4252.30758832521680000000, 4517.43578697019260000000, 4069.74349022538850000000, 0.00000000000000000000, 4.00000000000000000000, 4.00000000000000000000, 3.00000000000000000000, 4.00000000000000000000, 2.00000000000000000000, 1.00000000000000000000, 4.00000000000000000000, 2.00000000000000000000, 0.00000000000000000000, 4.00000000000000000000, 4.00000000000000000000, 3.00000000000000000000, 0.00000000000000000000, 4.00000000000000000000, 4.00000000000000000000, 4.00000000000000000000, 1673.00000000000000000000, 1690.00000000000000000000, 0.00000000000000000000
99.00000000000000000000, 0.00000000000000000000, 4586.66655450804860000000, 3983.58964617827860000000, 4208.71784580138140000000, 4242.56399881988910000000, 4233.33322981484160000000, 4473.84604444635720000000, 4182.56400028708050000000, 4615.89732302403260000000, 3832.82041909583590000000, 4418.46143041607230000000, 4740.51270459217360000000, 4249.74348582381480000000, 4519.48706897131430000000, 4062.56400322146280000000, 414.00000000000000000000, 4.00000000000000000000, 4.00000000000000000000, 3.00000000000000000000, 4.00000000000000000000, 2.00000000000000000000, 1.00000000000000000000, 4.00000000000000000000, 2.00000000000000000000, 0.00000000000000000000, 4.00000000000000000000, 4.00000000000000000000, 3.00000000000000000000, 0.00000000000000000000, 4.00000000000000000000, 4.00000000000000000000, 4.00000000000000000000, 1673.00000000000000000000, 1691.00000000000000000000, 0.00000000000000000000
100.00000000000000000000, 0.00000000000000000000, 4592.30758001113370000000, 3996.41015868528890000000, 4210.25630730222290000000, 4245.64092182157130000000, 4228.71784531231790000000, 4470.25630094439480000000, 4178.46143628483700000000, 4616.41014352431280000000, 3832.82041909583590000000, 4416.92296891523070000000, 4731.79475608740720000000, 4247.17938332241280000000, 4519.99988947159450000000, 4060.51272122034110000000, 393.00000000000000000000, 4.00000000000000000000, 4.00000000000000000000, 3.00000000000000000000, 4.00000000000000000000, 2.00000000000000000000, 1.00000000000000000000, 4.00000000000000000000, 2.00000000000000000000, 0.00000000000000000000, 4.00000000000000000000, 4.00000000000000000000, 3.00000000000000000000, 0.00000000000000000000, 4.00000000000000000000, 4.00000000000000000000, 4.00000000000000000000, 1674.00000000000000000000, 1691.00000000000000000000, 0.00000000000000000000
101.00000000000000000000, 0.00000000000000000000, 4612.30757952207020000000, 4004.61528668977550000000, 4217.94861480642880000000, 4249.23066532353460000000, 4261.53835733026430000000, 4471.28194194495520000000, 4187.17938478960420000000, 4617.94860502515440000000, 3832.30759859555560000000, 4425.12809691971780000000, 4738.97424309133290000000, 4252.82040882549790000000, 4518.97424847103410000000, 4068.71784922482770000000, 286.00000000000000000000, 4.00000000000000000000, 4.00000000000000000000, 3.00000000000000000000, 4.00000000000000000000, 2.00000000000000000000, 1.00000000000000000000, 4.00000000000000000000, 2.00000000000000000000, 0.00000000000000000000, 4.00000000000000000000, 4.00000000000000000000, 3.00000000000000000000, 0.00000000000000000000, 4.00000000000000000000, 4.00000000000000000000, 4.00000000000000000000, 1673.00000000000000000000, 1689.00000000000000000000, 0.00000000000000000000
102.00000000000000000000, 0.00000000000000000000, 4620.51270752655640000000, 4008.71785069201910000000, 4222.05117880867240000000, 4247.17938332241280000000, 4290.25630534596800000000, 4477.43578794832050000000, 4195.89733329437150000000, 4614.87168202347220000000, 3831.79477809527540000000, 4432.82040442392370000000, 4751.28193509806260000000, 4258.46143432858210000000, 4517.94860747047280000000, 4079.48707973071670000000, 0.00000000000000000000, 4.00000000000000000000, 4.00000000000000000000, 3.00000000000000000000, 4.00000000000000000000, 2.00000000000000000000, 1.00000000000000000000, 4.00000000000000000000, 2.00000000000000000000, 0.00000000000000000000, 4.00000000000000000000, 4.00000000000000000000, 3.00000000000000000000, 0.00000000000000000000, 4.00000000000000000000, 4.00000000000000000000, 4.00000000000000000000, 1673.00000000000000000000, 1689.00000000000000000000, 0.00000000000000000000
103.00000000000000000000, 0.00000000000000000000, 4608.71783602010690000000, 4003.58964568921510000000, 4221.53835830839220000000, 4246.15374232185240000000, 4262.56399833082560000000, 4476.41014694775910000000, 4189.23066679072600000000, 4612.82040002235040000000, 3831.28195759499480000000, 4432.82040442392370000000, 4752.82039659890420000000, 4255.38451132689990000000, 4516.92296646991240000000, 4082.56400273239930000000, 414.00000000000000000000, 4.00000000000000000000, 4.00000000000000000000, 3.00000000000000000000, 4.00000000000000000000, 2.00000000000000000000, 1.00000000000000000000, 4.00000000000000000000, 2.00000000000000000000, 0.00000000000000000000, 4.00000000000000000000, 4.00000000000000000000, 3.00000000000000000000, 0.00000000000000000000, 4.00000000000000000000, 4.00000000000000000000, 4.00000000000000000000, 1674.00000000000000000000, 1686.00000000000000000000, 0.00000000000000000000
104.00000000000000000000, 0.00000000000000000000, 4592.82040051141390000000, 3990.25631268192410000000, 4215.89733280530710000000, 4248.20502432297420000000, 4222.56399930895260000000, 4468.20501894327300000000, 4176.41015428371520000000, 4612.82040002235040000000, 3831.28195759499480000000, 4423.58963541887620000000, 4745.64090959497840000000, 4251.28194732465640000000, 4521.02553047215590000000, 4075.89733622875380000000, 393.00000000000000000000, 4.00000000000000000000, 4.00000000000000000000, 3.00000000000000000000, 4.00000000000000000000, 2.00000000000000000000, 1.00000000000000000000, 4.00000000000000000000, 2.00000000000000000000, 0.00000000000000000000, 4.00000000000000000000, 4.00000000000000000000, 3.00000000000000000000, 0.00000000000000000000, 4.00000000000000000000, 4.00000000000000000000, 4.00000000000000000000, 1671.00000000000000000000, 1686.00000000000000000000, 0.00000000000000000000
105.00000000000000000000, 0.00000000000000000000, 4590.25629801001200000000, 3989.74349218164340000000, 4214.35887130446640000000, 4250.25630632409500000000, 4225.64092231063570000000, 4467.17937794271170000000, 4175.89733378343500000000, 4606.66655401898520000000, 3832.82041909583590000000, 4415.89732791467030000000, 4739.48706359161320000000, 4249.74348582381480000000, 4520.51270997187480000000, 4069.74349022538850000000, 286.00000000000000000000, 4.00000000000000000000, 4.00000000000000000000, 3.00000000000000000000, 4.00000000000000000000, 2.00000000000000000000, 1.00000000000000000000, 4.00000000000000000000, 2.00000000000000000000, 0.00000000000000000000, 4.00000000000000000000, 4.00000000000000000000, 3.00000000000000000000, 0.00000000000000000000, 4.00000000000000000000, 4.00000000000000000000, 4.00000000000000000000, 1673.00000000000000000000, 1686.00000000000000000000, 0.00000000000000000000
106.00000000000000000000, 0.00000000000000000000, 4602.56399001674160000000, 3998.97426118669140000000, 4222.05117880867240000000, 4250.76912682437610000000, 4259.48707532914250000000, 4472.82040344579670000000, 4183.58964128764090000000, 4605.64091301842470000000, 3833.33323959611650000000, 4422.05117391803470000000, 4741.53834559273490000000, 4252.30758832521680000000, 4515.38450496907080000000, 4072.82041322707120000000, 0.00000000000000000000, 4.00000000000000000000, 4.00000000000000000000, 3.00000000000000000000, 4.00000000000000000000, 2.00000000000000000000, 1.00000000000000000000, 4.00000000000000000000, 2.00000000000000000000, 0.00000000000000000000, 4.00000000000000000000, 4.00000000000000000000, 3.00000000000000000000, 0.00000000000000000000, 4.00000000000000000000, 4.00000000000000000000, 4.00000000000000000000, 1671.00000000000000000000, 1686.00000000000000000000, 0.00000000000000000000
107.00000000000000000000, 0.00000000000000000000, 4610.76911802122870000000, 3996.92297918556960000000, 4226.15374281091590000000, 4245.12810132129110000000, 4274.87169033755530000000, 4476.92296744803930000000, 4187.69220528988440000000, 4613.84604102291090000000, 3832.30759859555560000000, 4427.69219942111980000000, 4747.17937109581910000000, 4256.92297282774050000000, 4517.94860747047280000000, 4078.46143873015580000000, 414.00000000000000000000, 4.00000000000000000000, 4.00000000000000000000, 3.00000000000000000000, 4.00000000000000000000, 2.00000000000000000000, 1.00000000000000000000, 4.00000000000000000000, 2.00000000000000000000, 0.00000000000000000000, 4.00000000000000000000, 4.00000000000000000000, 3.00000000000000000000, 0.00000000000000000000, 4.00000000000000000000, 4.00000000000000000000, 4.00000000000000000000, 1671.00000000000000000000, 1688.00000000000000000000, 0.00000000000000000000
108.00000000000000000000, 0.00000000000000000000, 4598.97424651477920000000, 3986.66656917996120000000, 4219.48707630727040000000, 4242.56399881988910000000, 4237.43579381708510000000, 4473.84604444635720000000, 4184.10246178792200000000, 4610.25629752094850000000, 3830.76913709471460000000, 4421.53835341775450000000, 4744.61526859441710000000, 4253.33322932577810000000, 4521.02553047215590000000, 4074.35887472791230000000, 393.00000000000000000000, 4.00000000000000000000, 4.00000000000000000000, 3.00000000000000000000, 4.00000000000000000000, 2.00000000000000000000, 1.00000000000000000000, 4.00000000000000000000, 2.00000000000000000000, 0.00000000000000000000, 4.00000000000000000000, 4.00000000000000000000, 3.00000000000000000000, 0.00000000000000000000, 4.00000000000000000000, 4.00000000000000000000, 4.00000000000000000000, 1672.00000000000000000000, 1687.00000000000000000000, 0.00000000000000000000
109.00000000000000000000, 0.00000000000000000000, 4586.66655450804860000000, 3985.12810767911970000000, 4211.28194830278330000000, 4250.76912682437610000000, 4210.25630730222290000000, 4468.20501894327300000000, 4177.94861578455680000000, 4603.58963101730300000000, 3830.25631659443390000000, 4418.97425091635250000000, 4739.99988409189340000000, 4248.20502432297420000000, 4519.48706897131430000000, 4067.69220822426720000000, 286.00000000000000000000, 4.00000000000000000000, 4.00000000000000000000, 3.00000000000000000000, 4.00000000000000000000, 2.00000000000000000000, 1.00000000000000000000, 4.00000000000000000000, 2.00000000000000000000, 0.00000000000000000000, 4.00000000000000000000, 4.00000000000000000000, 3.00000000000000000000, 0.00000000000000000000, 4.00000000000000000000, 4.00000000000000000000, 4.00000000000000000000, 1672.00000000000000000000, 1686.00000000000000000000, 0.00000000000000000000
110.00000000000000000000, 0.00000000000000000000, 4600.51270801561990000000, 3993.84605618388700000000, 4216.41015330558820000000, 4255.38451132689990000000, 4256.92297282774050000000, 4471.28194194495520000000, 4183.58964128764090000000, 4611.28193852150890000000, 3831.28195759499480000000, 4426.15373792027820000000, 4744.61526859441710000000, 4253.33322932577810000000, 4515.89732546935100000000, 4074.35887472791230000000, 0.00000000000000000000, 4.00000000000000000000, 4.00000000000000000000, 3.00000000000000000000, 4.00000000000000000000, 2.00000000000000000000, 1.00000000000000000000, 4.00000000000000000000, 2.00000000000000000000, 0.00000000000000000000, 4.00000000000000000000, 4.00000000000000000000, 3.00000000000000000000, 0.00000000000000000000, 4.00000000000000000000, 4.00000000000000000000, 4.00000000000000000000, 1672.00000000000000000000, 1686.00000000000000000000, 0.00000000000000000000
111.00000000000000000000, 0.00000000000000000000, 4618.97424602571480000000, 4005.64092769033640000000, 4229.74348631287920000000, 4248.71784482325440000000, 4293.84604884793040000000, 4477.94860844860070000000, 4195.89733329437150000000, 4618.97424602571480000000, 3832.82041909583590000000, 4440.51271192813060000000, 4753.33321709918440000000, 4259.48707532914250000000, 4518.46142797075390000000, 4087.17938723492310000000, 414.00000000000000000000, 4.00000000000000000000, 4.00000000000000000000, 3.00000000000000000000, 4.00000000000000000000, 2.00000000000000000000, 1.00000000000000000000, 4.00000000000000000000, 2.00000000000000000000, 0.00000000000000000000, 4.00000000000000000000, 4.00000000000000000000, 3.00000000000000000000, 0.00000000000000000000, 4.00000000000000000000, 4.00000000000000000000, 4.00000000000000000000, 1671.00000000000000000000, 1686.00000000000000000000, 0.00000000000000000000
112.00000000000000000000, 0.00000000000000000000, 4609.74347702066730000000, 4003.58964568921510000000, 4229.23066581259810000000, 4246.15374232185240000000, 4256.92297282774050000000, 4475.38450594719870000000, 4193.33323079296950000000, 4615.89732302403260000000, 3832.82041909583590000000, 4441.53835292869100000000, 4752.82039659890420000000, 4256.92297282774050000000, 4523.58963297355790000000, 4085.12810523380130000000, 393.00000000000000000000, 4.00000000000000000000, 4.00000000000000000000, 3.00000000000000000000, 4.00000000000000000000, 2.00000000000000000000, 1.00000000000000000000, 4.00000000000000000000, 2.00000000000000000000, 0.00000000000000000000, 4.00000000000000000000, 4.00000000000000000000, 3.00000000000000000000, 0.00000000000000000000, 4.00000000000000000000, 4.00000000000000000000, 4.00000000000000000000, 1672.00000000000000000000, 1685.00000000000000000000, 0.00000000000000000000
113.00000000000000000000, 0.00000000000000000000, 4598.46142601449810000000, 3992.82041518332610000000, 4220.51271730783080000000, 4250.25630632409500000000, 4235.89733231624360000000, 4471.28194194495520000000, 4185.12810278848250000000, 4614.87168202347220000000, 3831.28195759499480000000, 4424.61527641943760000000, 4745.12808909469820000000, 4252.30758832521680000000, 4519.99988947159450000000, 4076.92297722931470000000, 286.00000000000000000000, 4.00000000000000000000, 4.00000000000000000000, 3.00000000000000000000, 4.00000000000000000000, 2.00000000000000000000, 1.00000000000000000000, 4.00000000000000000000, 2.00000000000000000000, 0.00000000000000000000, 4.00000000000000000000, 4.00000000000000000000, 3.00000000000000000000, 0.00000000000000000000, 4.00000000000000000000, 4.00000000000000000000, 4.00000000000000000000, 1672.00000000000000000000, 1686.00000000000000000000, 0.00000000000000000000
114.00000000000000000000, 0.00000000000000000000, 4609.74347702066730000000, 3997.43579968584980000000, 4224.61528131007440000000, 4250.76912682437610000000, 4247.17938332241280000000, 4473.33322394607690000000, 4191.28194879184780000000, 4616.92296402459400000000, 3830.76913709471460000000, 4422.56399441831580000000, 4746.66655059553890000000, 4255.89733182718010000000, 4517.94860747047280000000, 4084.10246423324040000000, 0.00000000000000000000, 4.00000000000000000000, 4.00000000000000000000, 3.00000000000000000000, 4.00000000000000000000, 2.00000000000000000000, 1.00000000000000000000, 4.00000000000000000000, 2.00000000000000000000, 0.00000000000000000000, 4.00000000000000000000, 4.00000000000000000000, 3.00000000000000000000, 0.00000000000000000000, 4.00000000000000000000, 4.00000000000000000000, 4.00000000000000000000, 1673.00000000000000000000, 1687.00000000000000000000, 0.00000000000000000000
115.00000000000000000000, 0.00000000000000000000, 4611.28193852150890000000, 3998.97426118669140000000, 4227.69220431175750000000, 4248.71784482325440000000, 4218.46143530671000000000, 4473.84604444635720000000, 4194.35887179352990000000, 4614.87168202347220000000, 3831.79477809527540000000, 4428.71784042168020000000, 4753.33321709918440000000, 4257.94861382830190000000, 4520.51270997187480000000, 4085.12810523380130000000, 414.00000000000000000000, 4.00000000000000000000, 4.00000000000000000000, 3.00000000000000000000, 4.00000000000000000000, 2.00000000000000000000, 1.00000000000000000000, 4.00000000000000000000, 2.00000000000000000000, 0.00000000000000000000, 4.00000000000000000000, 4.00000000000000000000, 3.00000000000000000000, 0.00000000000000000000, 4.00000000000000000000, 4.00000000000000000000, 4.00000000000000000000, 1673.00000000000000000000, 1687.00000000000000000000, 0.00000000000000000000
116.00000000000000000000, 0.00000000000000000000, 4596.41014401337720000000, 3983.58964617827860000000, 4216.92297380586840000000, 4248.20502432297420000000, 4213.84605080418620000000, 4472.82040344579670000000, 4187.69220528988440000000, 4613.33322052263070000000, 3832.30759859555560000000, 4417.43578941551100000000, 4747.69219159610020000000, 4251.79476782493660000000, 4518.46142797075390000000, 4071.79477222651030000000, 393.00000000000000000000, 4.00000000000000000000, 4.00000000000000000000, 3.00000000000000000000, 4.00000000000000000000, 2.00000000000000000000, 1.00000000000000000000, 4.00000000000000000000, 2.00000000000000000000, 0.00000000000000000000, 4.00000000000000000000, 4.00000000000000000000, 3.00000000000000000000, 0.00000000000000000000, 4.00000000000000000000, 4.00000000000000000000, 4.00000000000000000000, 1672.00000000000000000000, 1687.00000000000000000000, 0.00000000000000000000
117.00000000000000000000, 0.00000000000000000000, 4599.99988751533970000000, 3990.76913318220430000000, 4219.48707630727040000000, 4245.64092182157130000000, 4272.82040833643350000000, 4474.35886494663740000000, 4196.41015379465170000000, 4617.94860502515440000000, 3831.79477809527540000000, 4415.38450741439010000000, 4743.58962759385670000000, 4254.87169082661880000000, 4519.48706897131430000000, 4076.92297722931470000000, 286.00000000000000000000, 4.00000000000000000000, 4.00000000000000000000, 3.00000000000000000000, 4.00000000000000000000, 2.00000000000000000000, 1.00000000000000000000, 4.00000000000000000000, 2.00000000000000000000, 0.00000000000000000000, 4.00000000000000000000, 4.00000000000000000000, 3.00000000000000000000, 0.00000000000000000000, 4.00000000000000000000, 4.00000000000000000000, 4.00000000000000000000, 1673.00000000000000000000, 1687.00000000000000000000, 0.00000000000000000000
118.00000000000000000000, 0.00000000000000000000, 4614.35886152319110000000, 4009.74349169257990000000, 4235.38451181596340000000, 4249.23066532353460000000, 4291.79476684680960000000, 4477.94860844860070000000, 4210.25630730222290000000, 4623.07681002795830000000, 3831.79477809527540000000, 4438.97425042728900000000, 4757.43578110142790000000, 4263.58963933138600000000, 4521.02553047215590000000, 4096.92297674025120000000, 0.00000000000000000000, 4.00000000000000000000, 4.00000000000000000000, 3.00000000000000000000, 4.00000000000000000000, 2.00000000000000000000, 1.00000000000000000000, 4.00000000000000000000, 2.00000000000000000000, 0.00000000000000000000, 4.00000000000000000000, 4.00000000000000000000, 3.00000000000000000000, 0.00000000000000000000, 4.00000000000000000000, 4.00000000000000000000, 4.00000000000000000000, 1673.00000000000000000000, 1687.00000000000000000000, 0.00000000000000000000
119.00000000000000000000, 0.00000000000000000000, 4607.17937451926540000000, 4001.02554318781270000000, 4234.87169131568320000000, 4256.41015232746030000000, 4251.28194732465640000000, 4477.94860844860070000000, 4202.05117929773590000000, 4617.94860502515440000000, 3832.82041909583590000000, 4444.61527593037320000000, 4758.97424260226940000000, 4264.10245983166710000000, 4519.48706897131430000000, 4095.38451523940970000000, 414.00000000000000000000, 4.00000000000000000000, 4.00000000000000000000, 3.00000000000000000000, 4.00000000000000000000, 2.00000000000000000000, 1.00000000000000000000, 4.00000000000000000000, 2.00000000000000000000, 0.00000000000000000000, 4.00000000000000000000, 4.00000000000000000000, 3.00000000000000000000, 0.00000000000000000000, 4.00000000000000000000, 4.00000000000000000000, 4.00000000000000000000, 1673.00000000000000000000, 1687.00000000000000000000, 0.00000000000000000000
120.00000000000000000000, 0.00000000000000000000, 4591.79475951085350000000, 3982.56400517771770000000, 4225.12810181035550000000, 4250.76912682437610000000, 4225.64092231063570000000, 4471.79476244523540000000, 4184.10246178792200000000, 4603.58963101730300000000, 3832.82041909583590000000, 4423.58963541887620000000, 4739.48706359161320000000, 4252.82040882549790000000, 4517.94860747047280000000, 4079.48707973071670000000, 393.00000000000000000000, 4.00000000000000000000, 4.00000000000000000000, 3.00000000000000000000, 4.00000000000000000000, 2.00000000000000000000, 1.00000000000000000000, 4.00000000000000000000, 2.00000000000000000000, 0.00000000000000000000, 4.00000000000000000000, 4.00000000000000000000, 3.00000000000000000000, 0.00000000000000000000, 4.00000000000000000000, 4.00000000000000000000, 4.00000000000000000000, 1673.00000000000000000000, 1687.00000000000000000000, 0.00000000000000000000
121.00000000000000000000, 0.00000000000000000000, 4592.82040051141390000000, 3988.71785118108300000000, 4226.15374281091590000000, 4242.56399881988910000000, 4235.38451181596340000000, 4468.20501894327300000000, 4182.56400028708050000000, 4601.53834901618120000000, 3831.28195759499480000000, 4412.30758441270700000000, 4732.82039708796760000000, 4245.12810132129110000000, 4517.43578697019260000000, 4085.12810523380130000000, 286.00000000000000000000, 4.00000000000000000000, 4.00000000000000000000, 3.00000000000000000000, 4.00000000000000000000, 2.00000000000000000000, 1.00000000000000000000, 4.00000000000000000000, 2.00000000000000000000, 0.00000000000000000000, 4.00000000000000000000, 4.00000000000000000000, 3.00000000000000000000, 0.00000000000000000000, 4.00000000000000000000, 4.00000000000000000000, 4.00000000000000000000, 1673.00000000000000000000, 1688.00000000000000000000, 0.00000000000000000000
122.00000000000000000000, 0.00000000000000000000, 4601.02552851590100000000, 3998.97426118669140000000, 4233.84605031512180000000, 4243.07681932016930000000, 4250.25630632409500000000, 4472.82040344579670000000, 4189.74348729100620000000, 4614.35886152319110000000, 3830.25631659443390000000, 4426.66655842055840000000, 4747.17937109581910000000, 4254.87169082661880000000, 4520.51270997187480000000, 4112.30759174866310000000, 0.00000000000000000000, 4.00000000000000000000, 4.00000000000000000000, 3.00000000000000000000, 4.00000000000000000000, 2.00000000000000000000, 1.00000000000000000000, 4.00000000000000000000, 2.00000000000000000000, 0.00000000000000000000, 4.00000000000000000000, 4.00000000000000000000, 3.00000000000000000000, 0.00000000000000000000, 4.00000000000000000000, 4.00000000000000000000, 4.00000000000000000000, 1674.00000000000000000000, 1687.00000000000000000000, 0.00000000000000000000
123.00000000000000000000, 0.00000000000000000000, 4601.02552851590100000000, 3995.89733818500870000000, 4235.38451181596340000000, 4246.15374232185240000000, 4251.28194732465640000000, 4474.87168544691850000000, 4192.30758979240820000000, 4620.51270752655640000000, 3831.79477809527540000000, 4445.12809643065430000000, 4762.05116560395160000000, 4264.61528033194740000000, 4521.53835097243610000000, 4130.25630925847780000000, 414.00000000000000000000, 4.00000000000000000000, 4.00000000000000000000, 3.00000000000000000000, 4.00000000000000000000, 2.00000000000000000000, 1.00000000000000000000, 4.00000000000000000000, 2.00000000000000000000, 0.00000000000000000000, 4.00000000000000000000, 4.00000000000000000000, 3.00000000000000000000, 0.00000000000000000000, 4.00000000000000000000, 4.00000000000000000000, 4.00000000000000000000, 1671.00000000000000000000, 1688.00000000000000000000, 0.00000000000000000000
124.00000000000000000000, 0.00000000000000000000, 4595.89732351309610000000, 3994.87169718444780000000, 4238.46143481764560000000, 4250.25630632409500000000, 4241.53835781932870000000, 4472.30758294551560000000, 4188.20502579016470000000, 4614.35886152319110000000, 3834.35888059667740000000, 4441.02553242841080000000, 4762.05116560395160000000, 4259.99989582942360000000, 4520.51270997187480000000, 4128.20502725735610000000, 393.00000000000000000000, 4.00000000000000000000, 4.00000000000000000000, 3.00000000000000000000, 4.00000000000000000000, 2.00000000000000000000, 1.00000000000000000000, 4.00000000000000000000, 2.00000000000000000000, 0.00000000000000000000, 4.00000000000000000000, 4.00000000000000000000, 3.00000000000000000000, 0.00000000000000000000, 4.00000000000000000000, 4.00000000000000000000, 4.00000000000000000000, 1673.00000000000000000000, 1689.00000000000000000000, 0.00000000000000000000
125.00000000000000000000, 0.00000000000000000000, 4596.41014401337720000000, 3997.43579968584980000000, 4241.53835781932870000000, 4252.82040882549790000000, 4252.82040882549790000000, 4472.82040344579670000000, 4188.20502579016470000000, 4613.84604102291090000000, 3833.84606009639670000000, 4434.35886592476530000000, 4754.87167860002590000000, 4256.92297282774050000000, 4519.99988947159450000000, 4128.20502725735610000000, 286.00000000000000000000, 4.00000000000000000000, 4.00000000000000000000, 3.00000000000000000000, 4.00000000000000000000, 2.00000000000000000000, 1.00000000000000000000, 4.00000000000000000000, 2.00000000000000000000, 0.00000000000000000000, 4.00000000000000000000, 4.00000000000000000000, 3.00000000000000000000, 0.00000000000000000000, 4.00000000000000000000, 4.00000000000000000000, 4.00000000000000000000, 1672.00000000000000000000, 1688.00000000000000000000, 0.00000000000000000000
126.00000000000000000000, 0.00000000000000000000, 4599.99988751533970000000, 3994.35887668416760000000, 4234.35887081540300000000, 4248.71784482325440000000, 4269.74348533475130000000, 4474.35886494663740000000, 4195.89733329437150000000, 4618.46142552543460000000, 3832.30759859555560000000, 4444.61527593037320000000, 4753.33321709918440000000, 4259.99989582942360000000, 4518.46142797075390000000, 4134.87169376100160000000, 0.00000000000000000000, 4.00000000000000000000, 4.00000000000000000000, 3.00000000000000000000, 4.00000000000000000000, 2.00000000000000000000, 1.00000000000000000000, 4.00000000000000000000, 2.00000000000000000000, 0.00000000000000000000, 4.00000000000000000000, 4.00000000000000000000, 3.00000000000000000000, 0.00000000000000000000, 4.00000000000000000000, 4.00000000000000000000, 4.00000000000000000000, 1672.00000000000000000000, 1688.00000000000000000000, 0.00000000000000000000
127.00000000000000000000, 0.00000000000000000000, 4594.87168251253570000000, 3993.84605618388700000000, 4228.20502481203770000000, 4245.12810132129110000000, 4256.92297282774050000000, 4473.84604444635720000000, 4197.43579479521210000000, 4617.94860502515440000000, 3833.33323959611650000000, 4447.69219893205630000000, 4751.79475559834280000000, 4256.41015232746030000000, 4518.97424847103410000000, 4127.17938625679560000000, 414.00000000000000000000, 4.00000000000000000000, 4.00000000000000000000, 3.00000000000000000000, 4.00000000000000000000, 2.00000000000000000000, 1.00000000000000000000, 4.00000000000000000000, 2.00000000000000000000, 0.00000000000000000000, 4.00000000000000000000, 4.00000000000000000000, 3.00000000000000000000, 0.00000000000000000000, 4.00000000000000000000, 4.00000000000000000000, 4.00000000000000000000, 1672.00000000000000000000, 1688.00000000000000000000, 0.00000000000000000000
128.00000000000000000000, 0.00000000000000000000, 4588.71783650917040000000, 4002.56400468865420000000, 4232.30758881428120000000, 4249.74348582381480000000, 4243.58963982045040000000, 4473.84604444635720000000, 4192.82041029268840000000, 4616.41014352431280000000, 3833.33323959611650000000, 4436.41014792588700000000, 4744.10244809413690000000, 4248.71784482325440000000, 4518.97424847103410000000, 4115.38451475034620000000, 393.00000000000000000000, 4.00000000000000000000, 4.00000000000000000000, 4.00000000000000000000, 4.00000000000000000000, 2.00000000000000000000, 1.00000000000000000000, 4.00000000000000000000, 2.00000000000000000000, 0.00000000000000000000, 4.00000000000000000000, 4.00000000000000000000, 3.00000000000000000000, 0.00000000000000000000, 4.00000000000000000000, 4.00000000000000000000, 4.00000000000000000000, 1672.00000000000000000000, 1688.00000000000000000000, 0.00000000000000000000
0.00000000000000000000, 0.00000000000000000000, 4588.20501600889020000000, 4006.66656869089730000000, 4233.84605031512180000000, 4249.74348582381480000000, 4248.71784482325440000000, 4474.87168544691850000000, 4192.30758979240820000000, 4612.30757952207020000000, 3832.30759859555560000000, 4432.30758392364350000000, 4741.53834559273490000000, 4250.76912682437610000000, 4518.97424847103410000000, 4113.84605324950460000000, 317.00000000000000000000, 4.00000000000000000000, 4.00000000000000000000, 3.00000000000000000000, 4.00000000000000000000, 2.00000000000000000000, 1.00000000000000000000, 4.00000000000000000000, 2.00000000000000000000, 0.00000000000000000000, 4.00000000000000000000, 4.00000000000000000000, 3.00000000000000000000, 0.00000000000000000000, 4.00000000000000000000, 4.00000000000000000000, 4.00000000000000000000, 1672.00000000000000000000, 1687.00000000000000000000, 0.00000000000000000000
1.00000000000000000000, 0.00000000000000000000, 4592.82040051141390000000, 3995.89733818500870000000, 4231.79476831400010000000, 4244.61528082101090000000, 4250.76912682437610000000, 4474.35886494663740000000, 4198.97425629605370000000, 4610.25629752094850000000, 3831.79477809527540000000, 4436.92296842616720000000, 4747.69219159610020000000, 4255.38451132689990000000, 4518.46142797075390000000, 4119.48707875258880000000, 401.00000000000000000000, 4.00000000000000000000, 4.00000000000000000000, 3.00000000000000000000, 4.00000000000000000000, 2.00000000000000000000, 1.00000000000000000000, 4.00000000000000000000, 2.00000000000000000000, 0.00000000000000000000, 4.00000000000000000000, 4.00000000000000000000, 3.00000000000000000000, 0.00000000000000000000, 4.00000000000000000000, 4.00000000000000000000, 4.00000000000000000000, 1672.00000000000000000000, 1688.00000000000000000000, 0.00000000000000000000
2.00000000000000000000, 0.00000000000000000000, 4598.46142601449810000000, 3995.38451768472810000000, 4238.46143481764560000000, 4254.87169082661880000000, 4243.07681932016930000000, 4473.33322394607690000000, 4200.51271779689520000000, 4615.38450252375240000000, 3831.79477809527540000000, 4439.48707092756920000000, 4753.33321709918440000000, 4256.41015232746030000000, 4516.92296646991240000000, 4125.64092475595410000000, 419.00000000000000000000, 4.00000000000000000000, 4.00000000000000000000, 3.00000000000000000000, 4.00000000000000000000, 2.00000000000000000000, 1.00000000000000000000, 4.00000000000000000000, 2.00000000000000000000, 0.00000000000000000000, 4.00000000000000000000, 4.00000000000000000000, 3.00000000000000000000, 0.00000000000000000000, 4.00000000000000000000, 4.00000000000000000000, 4.00000000000000000000, 1672.00000000000000000000, 1687.00000000000000000000, 0.00000000000000000000
3.00000000000000000000, 0.00000000000000000000, 4604.61527201786340000000, 4006.66656869089730000000, 4248.71784482325440000000, 4264.10245983166710000000, 4247.17938332241280000000, 4474.87168544691850000000, 4198.97425629605370000000, 4618.46142552543460000000, 3831.79477809527540000000, 4444.10245543009300000000, 4761.02552460339030000000, 4260.51271632970380000000, 4518.97424847103410000000, 4132.30759125959960000000, 455.00000000000000000000, 4.00000000000000000000, 4.00000000000000000000, 3.00000000000000000000, 4.00000000000000000000, 2.00000000000000000000, 1.00000000000000000000, 4.00000000000000000000, 2.00000000000000000000, 0.00000000000000000000, 4.00000000000000000000, 4.00000000000000000000, 3.00000000000000000000, 0.00000000000000000000, 4.00000000000000000000, 4.00000000000000000000, 4.00000000000000000000, 1672.00000000000000000000, 1688.00000000000000000000, 0.00000000000000000000
4.00000000000000000000, 0.00000000000000000000, 4609.74347702066730000000, 4009.23067119229930000000, 4250.25630632409500000000, 4254.87169082661880000000, 4263.07681883110580000000, 4477.94860844860070000000, 4200.51271779689520000000, 4616.41014352431280000000, 3832.82041909583590000000, 4447.69219893205630000000, 4767.17937060675560000000, 4261.53835733026430000000, 4522.56399197299650000000, 4134.87169376100160000000, 206.00000000000000000000, 4.00000000000000000000, 4.00000000000000000000, 3.00000000000000000000, 4.00000000000000000000, 2.00000000000000000000, 1.00000000000000000000, 4.00000000000000000000, 2.00000000000000000000, 0.00000000000000000000, 4.00000000000000000000, 4.00000000000000000000, 3.00000000000000000000, 0.00000000000000000000, 4.00000000000000000000, 4.00000000000000000000, 4.00000000000000000000, 1673.00000000000000000000, 1686.00000000000000000000, 0.00000000000000000000
5.00000000000000000000, 0.00000000000000000000, 4613.84604102291090000000, 4008.71785069201910000000, 4248.20502432297420000000, 4251.28194732465640000000, 4262.56399833082560000000, 4477.43578794832050000000, 4202.56399979801700000000, 4616.92296402459400000000, 3834.35888059667740000000, 4447.17937843177510000000, 4765.12808860563380000000, 4259.99989582942360000000, 4522.05117147271630000000, 4134.87169376100160000000, 162.00000000000000000000, 4.00000000000000000000, 4.00000000000000000000, 3.00000000000000000000, 4.00000000000000000000, 2.00000000000000000000, 1.00000000000000000000, 4.00000000000000000000, 2.00000000000000000000, 0.00000000000000000000, 4.00000000000000000000, 4.00000000000000000000, 3.00000000000000000000, 0.00000000000000000000, 4.00000000000000000000, 4.00000000000000000000, 4.00000000000000000000, 1672.00000000000000000000, 1687.00000000000000000000, 0.00000000000000000000
6.00000000000000000000, 0.00000000000000000000, 4614.35886152319110000000, 4015.38451719566460000000, 4252.30758832521680000000, 4256.41015232746030000000, 4244.61528082101090000000, 4473.84604444635720000000, 4199.48707679633390000000, 4618.46142552543460000000, 3833.84606009639670000000, 4446.15373743121470000000, 4764.10244760507340000000, 4262.05117783054540000000, 4519.99988947159450000000, 4135.38451426128180000000, 462.00000000000000000000, 4.00000000000000000000, 4.00000000000000000000, 3.00000000000000000000, 4.00000000000000000000, 2.00000000000000000000, 1.00000000000000000000, 4.00000000000000000000, 2.00000000000000000000, 0.00000000000000000000, 4.00000000000000000000, 4.00000000000000000000, 3.00000000000000000000, 0.00000000000000000000, 4.00000000000000000000, 4.00000000000000000000, 4.00000000000000000000, 1674.00000000000000000000, 1686.00000000000000000000, 0.00000000000000000000
7.00000000000000000000, 0.00000000000000000000, 4614.87168202347220000000, 4013.33323519454280000000, 4253.33322932577810000000, 4252.82040882549790000000, 4245.64092182157130000000, 4472.82040344579670000000, 4194.35887179352990000000, 4616.92296402459400000000, 3833.33323959611650000000, 4447.17937843177510000000, 4763.58962710479320000000, 4259.48707532914250000000, 4518.97424847103410000000, 4129.74348875819760000000, 215.00000000000000000000, 4.00000000000000000000, 4.00000000000000000000, 3.00000000000000000000, 4.00000000000000000000, 2.00000000000000000000, 1.00000000000000000000, 4.00000000000000000000, 2.00000000000000000000, 0.00000000000000000000, 4.00000000000000000000, 4.00000000000000000000, 3.00000000000000000000, 0.00000000000000000000, 4.00000000000000000000, 4.00000000000000000000, 4.00000000000000000000, 1673.00000000000000000000, 1685.00000000000000000000, 0.00000000000000000000
8.00000000000000000000, 0.00000000000000000000, 4615.89732302403260000000, 4002.56400468865420000000, 4250.76912682437610000000, 4252.82040882549790000000, 4265.64092133250780000000, 4476.41014694775910000000, 4195.38451279409130000000, 4615.89732302403260000000, 3832.82041909583590000000, 4443.58963492981270000000, 4764.61526810535360000000, 4256.41015232746030000000, 4521.53835097243610000000, 4126.66656575651540000000, 0.00000000000000000000, 4.00000000000000000000, 4.00000000000000000000, 3.00000000000000000000, 4.00000000000000000000, 2.00000000000000000000, 1.00000000000000000000, 4.00000000000000000000, 2.00000000000000000000, 0.00000000000000000000, 4.00000000000000000000, 4.00000000000000000000, 3.00000000000000000000, 0.00000000000000000000, 4.00000000000000000000, 4.00000000000000000000, 4.00000000000000000000, 1672.00000000000000000000, 1687.00000000000000000000, 0.00000000000000000000
9.00000000000000000000, 0.00000000000000000000, 4607.69219501954650000000, 4003.58964568921510000000, 4248.71784482325440000000, 4256.92297282774050000000, 4266.15374183278800000000, 4478.46142894888090000000, 4194.87169229381020000000, 4615.89732302403260000000, 3831.28195759499480000000, 4439.99989142784940000000, 4763.58962710479320000000, 4258.46143432858210000000, 4520.51270997187480000000, 4127.17938625679560000000, 413.00000000000000000000, 4.00000000000000000000, 4.00000000000000000000, 3.00000000000000000000, 4.00000000000000000000, 2.00000000000000000000, 1.00000000000000000000, 4.00000000000000000000, 2.00000000000000000000, 0.00000000000000000000, 4.00000000000000000000, 4.00000000000000000000, 3.00000000000000000000, 0.00000000000000000000, 4.00000000000000000000, 4.00000000000000000000, 4.00000000000000000000, 1673.00000000000000000000, 1686.00000000000000000000, 0.00000000000000000000
10.00000000000000000000, 0.00000000000000000000, 4601.53834901618120000000, 4008.71785069201910000000, 4247.69220382269300000000, 4257.43579332802160000000, 4241.02553731904750000000, 4473.84604444635720000000, 4186.66656428932400000000, 4616.92296402459400000000, 3832.30759859555560000000, 4439.48707092756920000000, 4753.84603759946460000000, 4257.94861382830190000000, 4516.41014596963210000000, 4122.56400175427190000000, 0.00000000000000000000, 4.00000000000000000000, 4.00000000000000000000, 3.00000000000000000000, 4.00000000000000000000, 2.00000000000000000000, 1.00000000000000000000, 4.00000000000000000000, 2.00000000000000000000, 0.00000000000000000000, 4.00000000000000000000, 4.00000000000000000000, 3.00000000000000000000, 0.00000000000000000000, 4.00000000000000000000, 4.00000000000000000000, 4.00000000000000000000, 1672.00000000000000000000, 1686.00000000000000000000, 0.00000000000000000000
11.00000000000000000000, 0.00000000000000000000, 4603.58963101730300000000, 4006.66656869089730000000, 4244.61528082101090000000, 4258.97425482886230000000, 4218.46143530671000000000, 4468.71783944355320000000, 4176.41015428371520000000, 4608.71783602010690000000, 3833.84606009639670000000, 4430.76912242280200000000, 4743.58962759385670000000, 4252.30758832521680000000, 4521.02553047215590000000, 4114.87169425006500000000, 414.00000000000000000000, 4.00000000000000000000, 4.00000000000000000000, 3.00000000000000000000, 4.00000000000000000000, 2.00000000000000000000, 1.00000000000000000000, 4.00000000000000000000, 2.00000000000000000000, 0.00000000000000000000, 4.00000000000000000000, 4.00000000000000000000, 3.00000000000000000000, 0.00000000000000000000, 4.00000000000000000000, 4.00000000000000000000, 4.00000000000000000000, 1672.00000000000000000000, 1686.00000000000000000000, 0.00000000000000000000
12.00000000000000000000, 0.00000000000000000000, 4601.02552851590100000000, 4002.05118418837360000000, 4239.99989631848710000000, 4255.38451132689990000000, 4233.33322981484160000000, 4470.76912144467500000000, 4175.38451328315480000000, 4603.58963101730300000000, 3831.28195759499480000000, 4423.58963541887620000000, 4743.58962759385670000000, 4248.71784482325440000000, 4523.07681247327760000000, 4111.79477124838290000000, 393.00000000000000000000, 4.00000000000000000000, 4.00000000000000000000, 3.00000000000000000000, 4.00000000000000000000, 2.00000000000000000000, 1.00000000000000000000, 4.00000000000000000000, 2.00000000000000000000, 0.00000000000000000000, 4.00000000000000000000, 4.00000000000000000000, 3.00000000000000000000, 0.00000000000000000000, 4.00000000000000000000, 4.00000000000000000000, 4.00000000000000000000, 1673.00000000000000000000, 1686.00000000000000000000, 0.00000000000000000000
13.00000000000000000000, 0.00000000000000000000, 4599.48706701505940000000, 4001.02554318781270000000, 4241.53835781932870000000, 4245.64092182157130000000, 4269.23066483447110000000, 4475.38450594719870000000, 4185.12810278848250000000, 4613.84604102291090000000, 3830.76913709471460000000, 4432.82040442392370000000, 4748.71783259666060000000, 4253.33322932577810000000, 4519.48706897131430000000, 4111.79477124838290000000, 286.00000000000000000000, 4.00000000000000000000, 4.00000000000000000000, 3.00000000000000000000, 4.00000000000000000000, 2.00000000000000000000, 1.00000000000000000000, 4.00000000000000000000, 2.00000000000000000000, 0.00000000000000000000, 4.00000000000000000000, 4.00000000000000000000, 3.00000000000000000000, 0.00000000000000000000, 4.00000000000000000000, 4.00000000000000000000, 4.00000000000000000000, 1674.00000000000000000000, 1686.00000000000000000000, 0.00000000000000000000
14.00000000000000000000, 0.00000000000000000000, 4603.58963101730300000000, 4006.15374819061710000000, 4246.15374232185240000000, 4247.69220382269300000000, 4278.97425433979880000000, 4476.92296744803930000000, 4190.76912829156750000000, 4618.97424602571480000000, 3832.82041909583590000000, 4437.94860942672770000000, 4752.82039659890420000000, 4257.94861382830190000000, 4519.99988947159450000000, 4113.33323274922440000000, 0.00000000000000000000, 4.00000000000000000000, 4.00000000000000000000, 3.00000000000000000000, 4.00000000000000000000, 2.00000000000000000000, 1.00000000000000000000, 4.00000000000000000000, 2.00000000000000000000, 0.00000000000000000000, 4.00000000000000000000, 4.00000000000000000000, 3.00000000000000000000, 0.00000000000000000000, 4.00000000000000000000, 4.00000000000000000000, 4.00000000000000000000, 1672.00000000000000000000, 1687.00000000000000000000, 0.00000000000000000000
15.00000000000000000000, 0.00000000000000000000, 4602.05116951646140000000, 4012.82041469426260000000, 4247.69220382269300000000, 4252.30758832521680000000, 4256.41015232746030000000, 4472.82040344579670000000, 4187.69220528988440000000, 4611.28193852150890000000, 3831.79477809527540000000, 4425.12809691971780000000, 4751.79475559834280000000, 4254.35887032633850000000, 4520.51270997187480000000, 4113.84605324950460000000, 414.00000000000000000000, 4.00000000000000000000, 4.00000000000000000000, 3.00000000000000000000, 4.00000000000000000000, 2.00000000000000000000, 1.00000000000000000000, 4.00000000000000000000, 2.00000000000000000000, 0.00000000000000000000, 4.00000000000000000000, 4.00000000000000000000, 3.00000000000000000000, 0.00000000000000000000, 4.00000000000000000000, 4.00000000000000000000, 4.00000000000000000000, 1674.00000000000000000000, 1686.00000000000000000000, 0.00000000000000000000
16.00000000000000000000, 0.00000000000000000000, 4593.84604151197440000000, 4007.69220969145820000000, 4242.05117831960890000000, 4248.71784482325440000000, 4238.46143481764560000000, 4470.25630094439480000000, 4180.51271828595870000000, 4610.25629752094850000000, 3830.76913709471460000000, 4421.53835341775450000000, 4738.97424309133290000000, 4250.76912682437610000000, 4518.46142797075390000000, 4107.17938674585910000000, 0.00000000000000000000, 4.00000000000000000000, 4.00000000000000000000, 3.00000000000000000000, 4.00000000000000000000, 2.00000000000000000000, 1.00000000000000000000, 4.00000000000000000000, 2.00000000000000000000, 0.00000000000000000000, 4.00000000000000000000, 4.00000000000000000000, 3.00000000000000000000, 0.00000000000000000000, 4.00000000000000000000, 4.00000000000000000000, 4.00000000000000000000, 1672.00000000000000000000, 1687.00000000000000000000, 0.00000000000000000000
17.00000000000000000000, 0.00000000000000000000, 4592.82040051141390000000, 3993.84605618388700000000, 4237.43579381708510000000, 4248.20502432297420000000, 4244.10246032073060000000, 4473.33322394607690000000, 4178.46143628483700000000, 4616.41014352431280000000, 3832.30759859555560000000, 4431.79476342336330000000, 4727.69219208516370000000, 4253.33322932577810000000, 4516.92296646991240000000, 4098.97425874137210000000, 0.00000000000000000000, 4.00000000000000000000, 4.00000000000000000000, 3.00000000000000000000, 4.00000000000000000000, 2.00000000000000000000, 1.00000000000000000000, 4.00000000000000000000, 2.00000000000000000000, 0.00000000000000000000, 4.00000000000000000000, 4.00000000000000000000, 3.00000000000000000000, 0.00000000000000000000, 4.00000000000000000000, 4.00000000000000000000, 4.00000000000000000000, 1674.00000000000000000000, 1687.00000000000000000000, 0.00000000000000000000
18.00000000000000000000, 0.00000000000000000000, 4597.43578501393770000000, 3993.33323568360670000000, 4240.51271681876730000000, 4248.71784482325440000000, 4249.74348582381480000000, 4476.41014694775910000000, 4181.02553878623890000000, 4615.89732302403260000000, 3833.33323959611650000000, 4429.74348142224150000000, 4729.23065358600520000000, 4252.82040882549790000000, 4520.51270997187480000000, 4097.43579724053140000000, 0.00000000000000000000, 4.00000000000000000000, 4.00000000000000000000, 3.00000000000000000000, 4.00000000000000000000, 2.00000000000000000000, 1.00000000000000000000, 4.00000000000000000000, 2.00000000000000000000, 0.00000000000000000000, 4.00000000000000000000, 4.00000000000000000000, 3.00000000000000000000, 0.00000000000000000000, 4.00000000000000000000, 4.00000000000000000000, 4.00000000000000000000, 1673.00000000000000000000, 1687.00000000000000000000, 0.00000000000000000000
19.00000000000000000000, 0.00000000000000000000, 4600.51270801561990000000, 4007.69220969145820000000, 4242.56399881988910000000, 4249.74348582381480000000, 4248.20502432297420000000, 4473.33322394607690000000, 4181.53835928651920000000, 4614.35886152319110000000, 3831.79477809527540000000, 4426.15373792027820000000, 4733.33321758824790000000, 4250.25630632409500000000, 4521.53835097243610000000, 4099.99989974193340000000, 0.00000000000000000000, 4.00000000000000000000, 4.00000000000000000000, 3.00000000000000000000, 4.00000000000000000000, 2.00000000000000000000, 1.00000000000000000000, 4.00000000000000000000, 2.00000000000000000000, 0.00000000000000000000, 4.00000000000000000000, 4.00000000000000000000, 3.00000000000000000000, 0.00000000000000000000, 4.00000000000000000000, 4.00000000000000000000, 4.00000000000000000000, 1672.00000000000000000000, 1688.00000000000000000000, 0.00000000000000000000
20.00000000000000000000, 0.00000000000000000000, 4599.99988751533970000000, 4014.87169669538390000000, 4244.10246032073060000000, 4249.23066532353460000000, 4255.38451132689990000000, 4472.30758294551560000000, 4187.17938478960420000000, 4616.41014352431280000000, 3832.82041909583590000000, 4440.51271192813060000000, 4739.48706359161320000000, 4253.33322932577810000000, 4517.94860747047280000000, 4099.48707924165320000000, 0.00000000000000000000, 4.00000000000000000000, 4.00000000000000000000, 3.00000000000000000000, 4.00000000000000000000, 2.00000000000000000000, 1.00000000000000000000, 4.00000000000000000000, 2.00000000000000000000, 0.00000000000000000000, 4.00000000000000000000, 4.00000000000000000000, 3.00000000000000000000, 0.00000000000000000000, 4.00000000000000000000, 4.00000000000000000000, 4.00000000000000000000, 1673.00000000000000000000, 1687.00000000000000000000, 0.00000000000000000000
21.00000000000000000000, 0.00000000000000000000, 4595.38450301281590000000, 4011.79477369370170000000, 4248.20502432297420000000, 4247.69220382269300000000, 4263.58963933138600000000, 4476.41014694775910000000, 4197.43579479521210000000, 4619.48706652599590000000, 3833.84606009639670000000, 4448.20501943233650000000, 4745.64090959497840000000, 4256.41015232746030000000, 4518.46142797075390000000, 4101.53836124277500000000, 0.00000000000000000000, 4.00000000000000000000, 4.00000000000000000000, 3.00000000000000000000, 4.00000000000000000000, 2.00000000000000000000, 1.00000000000000000000, 4.00000000000000000000, 2.00000000000000000000, 0.00000000000000000000, 4.00000000000000000000, 4.00000000000000000000, 3.00000000000000000000, 0.00000000000000000000, 4.00000000000000000000, 4.00000000000000000000, 4.00000000000000000000, 1672.00000000000000000000, 1688.00000000000000000000, 0.00000000000000000000
22.00000000000000000000, 0.00000000000000000000, 4593.33322101169410000000, 4008.71785069201910000000, 4244.61528082101090000000, 4249.74348582381480000000, 4241.53835781932870000000, 4476.41014694775910000000, 4194.87169229381020000000, 4617.94860502515440000000, 3832.30759859555560000000, 4434.35886592476530000000, 4742.05116609301510000000, 4252.30758832521680000000, 4519.48706897131430000000, 4103.07682274361560000000, 0.00000000000000000000, 4.00000000000000000000, 4.00000000000000000000, 3.00000000000000000000, 4.00000000000000000000, 2.00000000000000000000, 1.00000000000000000000, 4.00000000000000000000, 2.00000000000000000000, 0.00000000000000000000, 4.00000000000000000000, 4.00000000000000000000, 3.00000000000000000000, 0.00000000000000000000, 4.00000000000000000000, 4.00000000000000000000, 4.00000000000000000000, 1672.00000000000000000000, 1687.00000000000000000000, 0.00000000000000000000
23.00000000000000000000, 0.00000000000000000000, 4594.87168251253570000000, 3996.41015868528890000000, 4237.43579381708510000000, 4246.66656282213260000000, 4225.12810181035550000000, 4470.76912144467500000000, 4187.69220528988440000000, 4611.28193852150890000000, 3832.82041909583590000000, 4421.02553291747430000000, 4730.76911508684590000000, 4247.17938332241280000000, 4518.46142797075390000000, 4097.94861774081160000000, 0.00000000000000000000, 4.00000000000000000000, 4.00000000000000000000, 3.00000000000000000000, 4.00000000000000000000, 2.00000000000000000000, 1.00000000000000000000, 4.00000000000000000000, 2.00000000000000000000, 0.00000000000000000000, 4.00000000000000000000, 4.00000000000000000000, 3.00000000000000000000, 0.00000000000000000000, 4.00000000000000000000, 4.00000000000000000000, 4.00000000000000000000, 1673.00000000000000000000, 1688.00000000000000000000, 0.00000000000000000000
24.00000000000000000000, 0.00000000000000000000, 4598.46142601449810000000, 3989.23067168136320000000, 4245.12810132129110000000, 4237.94861431736540000000, 4251.79476782493660000000, 4470.25630094439480000000, 4197.43579479521210000000, 4612.82040002235040000000, 3833.33323959611650000000, 4424.10245591915650000000, 4729.23065358600520000000, 4251.79476782493660000000, 4517.94860747047280000000, 4096.41015623997010000000, 0.00000000000000000000, 4.00000000000000000000, 4.00000000000000000000, 3.00000000000000000000, 4.00000000000000000000, 2.00000000000000000000, 1.00000000000000000000, 4.00000000000000000000, 2.00000000000000000000, 0.00000000000000000000, 4.00000000000000000000, 4.00000000000000000000, 3.00000000000000000000, 0.00000000000000000000, 4.00000000000000000000, 4.00000000000000000000, 4.00000000000000000000, 1673.00000000000000000000, 1687.00000000000000000000, 0.00000000000000000000
25.00000000000000000000, 0.00000000000000000000, 4602.05116951646140000000, 4003.58964568921510000000, 4256.92297282774050000000, 4240.51271681876730000000, 4272.82040833643350000000, 4474.87168544691850000000, 4202.56399979801700000000, 4618.46142552543460000000, 3832.30759859555560000000, 4429.74348142224150000000, 4738.97424309133290000000, 4258.46143432858210000000, 4517.43578697019260000000, 4101.53836124277500000000, 0.00000000000000000000, 4.00000000000000000000, 4.00000000000000000000, 3.00000000000000000000, 4.00000000000000000000, 2.00000000000000000000, 1.00000000000000000000, 4.00000000000000000000, 2.00000000000000000000, 0.00000000000000000000, 4.00000000000000000000, 4.00000000000000000000, 3.00000000000000000000, 0.00000000000000000000, 4.00000000000000000000, 4.00000000000000000000, 4.00000000000000000000, 1672.00000000000000000000, 1688.00000000000000000000, 0.00000000000000000000
26.00000000000000000000, 0.00000000000000000000, 4602.05116951646140000000, 4014.87169669538390000000, 4254.35887032633850000000, 4250.76912682437610000000, 4257.94861382830190000000, 4477.94860844860070000000, 4199.99989729661500000000, 4616.92296402459400000000, 3832.82041909583590000000, 4430.76912242280200000000, 4747.17937109581910000000, 4258.97425482886230000000, 4521.02553047215590000000, 4107.69220724613930000000, 0.00000000000000000000, 4.00000000000000000000, 4.00000000000000000000, 3.00000000000000000000, 4.00000000000000000000, 2.00000000000000000000, 1.00000000000000000000, 4.00000000000000000000, 2.00000000000000000000, 0.00000000000000000000, 4.00000000000000000000, 4.00000000000000000000, 3.00000000000000000000, 0.00000000000000000000, 4.00000000000000000000, 4.00000000000000000000, 4.00000000000000000000, 1674.00000000000000000000, 1688.00000000000000000000, 0.00000000000000000000
27.00000000000000000000, 0.00000000000000000000, 4596.92296451365750000000, 4009.23067119229930000000, 4245.12810132129110000000, 4251.79476782493660000000, 4233.84605031512180000000, 4476.41014694775910000000, 4201.02553829717540000000, 4613.84604102291090000000, 3833.33323959611650000000, 4427.69219942111980000000, 4739.99988409189340000000, 4254.87169082661880000000, 4522.05117147271630000000, 4102.56400224333540000000, 0.00000000000000000000, 4.00000000000000000000, 4.00000000000000000000, 3.00000000000000000000, 4.00000000000000000000, 2.00000000000000000000, 1.00000000000000000000, 4.00000000000000000000, 2.00000000000000000000, 0.00000000000000000000, 4.00000000000000000000, 4.00000000000000000000, 3.00000000000000000000, 0.00000000000000000000, 4.00000000000000000000, 4.00000000000000000000, 4.00000000000000000000, 1671.00000000000000000000, 1688.00000000000000000000, 0.00000000000000000000
28.00000000000000000000, 0.00000000000000000000, 4592.82040051141390000000, 4001.53836368809330000000, 4242.05117831960890000000, 4248.71784482325440000000, 4229.74348631287920000000, 4470.76912144467500000000, 4191.79476929212800000000, 4616.41014352431280000000, 3831.79477809527540000000, 4425.12809691971780000000, 4731.79475608740720000000, 4252.30758832521680000000, 4518.97424847103410000000, 4090.25631023660530000000, 0.00000000000000000000, 4.00000000000000000000, 4.00000000000000000000, 3.00000000000000000000, 4.00000000000000000000, 2.00000000000000000000, 1.00000000000000000000, 4.00000000000000000000, 2.00000000000000000000, 0.00000000000000000000, 4.00000000000000000000, 4.00000000000000000000, 3.00000000000000000000, 0.00000000000000000000, 4.00000000000000000000, 4.00000000000000000000, 4.00000000000000000000, 1673.00000000000000000000, 1689.00000000000000000000, 0.00000000000000000000
29.00000000000000000000, 0.00000000000000000000, 4597.43578501393770000000, 3998.46144068641070000000, 4242.56399881988910000000, 4249.23066532353460000000, 4242.56399881988910000000, 4468.20501894327300000000, 4178.97425678511720000000, 4616.41014352431280000000, 3833.33323959611650000000, 4429.23066092196130000000, 4743.07680709357650000000, 4254.87169082661880000000, 4519.48706897131430000000, 4088.71784873576420000000, 0.00000000000000000000, 4.00000000000000000000, 4.00000000000000000000, 3.00000000000000000000, 4.00000000000000000000, 2.00000000000000000000, 1.00000000000000000000, 4.00000000000000000000, 2.00000000000000000000, 0.00000000000000000000, 4.00000000000000000000, 4.00000000000000000000, 3.00000000000000000000, 0.00000000000000000000, 4.00000000000000000000, 4.00000000000000000000, 4.00000000000000000000, 1673.00000000000000000000, 1687.00000000000000000000, 0.00000000000000000000
30.00000000000000000000, 0.00000000000000000000, 4597.94860551421790000000, 3996.92297918556960000000, 4242.05117831960890000000, 4248.71784482325440000000, 4249.74348582381480000000, 4471.79476244523540000000, 4183.07682078736070000000, 4611.79475902178910000000, 3831.79477809527540000000, 4429.74348142224150000000, 4748.71783259666060000000, 4253.33322932577810000000, 4517.94860747047280000000, 4094.87169473912900000000, 0.00000000000000000000, 4.00000000000000000000, 4.00000000000000000000, 3.00000000000000000000, 4.00000000000000000000, 2.00000000000000000000, 1.00000000000000000000, 4.00000000000000000000, 2.00000000000000000000, 0.00000000000000000000, 4.00000000000000000000, 4.00000000000000000000, 3.00000000000000000000, 0.00000000000000000000, 4.00000000000000000000, 4.00000000000000000000, 4.00000000000000000000, 1671.00000000000000000000, 1689.00000000000000000000, 0.00000000000000000000
31.00000000000000000000, 0.00000000000000000000, 4591.28193901057240000000, 3995.89733818500870000000, 4243.58963982045040000000, 4250.25630632409500000000, 4251.28194732465640000000, 4475.38450594719870000000, 4189.74348729100620000000, 4612.30757952207020000000, 3827.69221409303190000000, 4427.69219942111980000000, 4737.94860209077160000000, 4251.28194732465640000000, 4515.89732546935100000000, 4093.84605373856810000000, 0.00000000000000000000, 4.00000000000000000000, 4.00000000000000000000, 3.00000000000000000000, 4.00000000000000000000, 2.00000000000000000000, 1.00000000000000000000, 4.00000000000000000000, 2.00000000000000000000, 0.00000000000000000000, 4.00000000000000000000, 4.00000000000000000000, 3.00000000000000000000, 0.00000000000000000000, 4.00000000000000000000, 4.00000000000000000000, 4.00000000000000000000, 1672.00000000000000000000, 1688.00000000000000000000, 0.00000000000000000000
32.00000000000000000000, 0.00000000000000000000, 4585.12809300720800000000, 3992.82041518332610000000, 4243.07681932016930000000, 4251.28194732465640000000, 4250.76912682437610000000, 4474.35886494663740000000, 4190.25630779128640000000, 4616.41014352431280000000, 3829.74349609415370000000, 4427.17937892083960000000, 4734.87167908908940000000, 4251.28194732465640000000, 4517.94860747047280000000, 4083.07682323267950000000, 0.00000000000000000000, 4.00000000000000000000, 4.00000000000000000000, 3.00000000000000000000, 4.00000000000000000000, 2.00000000000000000000, 1.00000000000000000000, 4.00000000000000000000, 2.00000000000000000000, 0.00000000000000000000, 4.00000000000000000000, 4.00000000000000000000, 3.00000000000000000000, 0.00000000000000000000, 4.00000000000000000000, 4.00000000000000000000, 4.00000000000000000000, 1672.00000000000000000000, 1689.00000000000000000000, 0.00000000000000000000
33.00000000000000000000, 0.00000000000000000000, 4582.05117000552490000000, 3987.17938968024150000000, 4231.28194781371990000000, 4245.12810132129110000000, 4249.74348582381480000000, 4474.87168544691850000000, 4193.33323079296950000000, 4615.38450252375240000000, 3833.84606009639670000000, 4424.61527641943760000000, 4735.38449958936960000000, 4248.71784482325440000000, 4519.99988947159450000000, 4074.35887472791230000000, 0.00000000000000000000, 4.00000000000000000000, 4.00000000000000000000, 3.00000000000000000000, 4.00000000000000000000, 2.00000000000000000000, 1.00000000000000000000, 4.00000000000000000000, 2.00000000000000000000, 0.00000000000000000000, 4.00000000000000000000, 4.00000000000000000000, 3.00000000000000000000, 0.00000000000000000000, 4.00000000000000000000, 4.00000000000000000000, 4.00000000000000000000, 1672.00000000000000000000, 1688.00000000000000000000, 0.00000000000000000000
34.00000000000000000000, 0.00000000000000000000, 4584.10245200664670000000, 3987.69221018052210000000, 4226.66656331119610000000, 4242.05117831960890000000, 4254.87169082661880000000, 4475.89732644747890000000, 4195.89733329437150000000, 4613.33322052263070000000, 3832.82041909583590000000, 4425.12809691971780000000, 4732.82039708796760000000, 4248.71784482325440000000, 4521.53835097243610000000, 4074.87169522819290000000, 0.00000000000000000000, 4.00000000000000000000, 4.00000000000000000000, 3.00000000000000000000, 4.00000000000000000000, 2.00000000000000000000, 1.00000000000000000000, 4.00000000000000000000, 2.00000000000000000000, 0.00000000000000000000, 4.00000000000000000000, 4.00000000000000000000, 3.00000000000000000000, 0.00000000000000000000, 4.00000000000000000000, 4.00000000000000000000, 4.00000000000000000000, 1672.00000000000000000000, 1687.00000000000000000000, 0.00000000000000000000
35.00000000000000000000, 0.00000000000000000000, 4587.69219550861000000000, 3996.92297918556960000000, 4238.46143481764560000000, 4247.69220382269300000000, 4258.97425482886230000000, 4474.35886494663740000000, 4195.38451279409130000000, 4616.92296402459400000000, 3832.30759859555560000000, 4436.41014792588700000000, 4741.53834559273490000000, 4256.92297282774050000000, 4519.99988947159450000000, 4084.10246423324040000000, 0.00000000000000000000, 4.00000000000000000000, 4.00000000000000000000, 3.00000000000000000000, 4.00000000000000000000, 2.00000000000000000000, 1.00000000000000000000, 4.00000000000000000000, 2.00000000000000000000, 0.00000000000000000000, 4.00000000000000000000, 4.00000000000000000000, 3.00000000000000000000, 0.00000000000000000000, 4.00000000000000000000, 4.00000000000000000000, 4.00000000000000000000, 1672.00000000000000000000, 1687.00000000000000000000, 0.00000000000000000000
36.00000000000000000000, 0.00000000000000000000, 4590.76911851029220000000, 4003.58964568921510000000, 4249.23066532353460000000, 4250.76912682437610000000, 4245.64092182157130000000, 4472.30758294551560000000, 4195.89733329437150000000, 4620.51270752655640000000, 3833.84606009639670000000, 4441.53835292869100000000, 4750.76911459778240000000, 4262.05117783054540000000, 4519.99988947159450000000, 4091.79477173744680000000, 0.00000000000000000000, 4.00000000000000000000, 4.00000000000000000000, 3.00000000000000000000, 4.00000000000000000000, 2.00000000000000000000, 1.00000000000000000000, 4.00000000000000000000, 2.00000000000000000000, 0.00000000000000000000, 4.00000000000000000000, 4.00000000000000000000, 3.00000000000000000000, 0.00000000000000000000, 4.00000000000000000000, 4.00000000000000000000, 4.00000000000000000000, 1672.00000000000000000000, 1686.00000000000000000000, 0.00000000000000000000
37.00000000000000000000, 0.00000000000000000000, 4586.66655450804860000000, 3999.48708168697160000000, 4244.10246032073060000000, 4247.17938332241280000000, 4227.69220431175750000000, 4470.76912144467500000000, 4190.76912829156750000000, 4617.94860502515440000000, 3832.82041909583590000000, 4432.30758392364350000000, 4743.58962759385670000000, 4255.89733182718010000000, 4520.51270997187480000000, 4085.12810523380130000000, 0.00000000000000000000, 4.00000000000000000000, 4.00000000000000000000, 3.00000000000000000000, 4.00000000000000000000, 2.00000000000000000000, 1.00000000000000000000, 4.00000000000000000000, 2.00000000000000000000, 0.00000000000000000000, 4.00000000000000000000, 4.00000000000000000000, 3.00000000000000000000, 0.00000000000000000000, 4.00000000000000000000, 4.00000000000000000000, 4.00000000000000000000, 1672.00000000000000000000, 1687.00000000000000000000, 0.00000000000000000000
38.00000000000000000000, 0.00000000000000000000, 4580.51270850468430000000, 3989.23067168136320000000, 4232.82040931456140000000, 4247.69220382269300000000, 4230.76912731343960000000, 4471.28194194495520000000, 4181.53835928651920000000, 4615.38450252375240000000, 3831.79477809527540000000, 4425.12809691971780000000, 4733.84603808852900000000, 4249.23066532353460000000, 4517.43578697019260000000, 4072.82041322707120000000, 0.00000000000000000000, 4.00000000000000000000, 4.00000000000000000000, 3.00000000000000000000, 4.00000000000000000000, 2.00000000000000000000, 1.00000000000000000000, 4.00000000000000000000, 2.00000000000000000000, 0.00000000000000000000, 4.00000000000000000000, 4.00000000000000000000, 3.00000000000000000000, 0.00000000000000000000, 4.00000000000000000000, 4.00000000000000000000, 4.00000000000000000000, 1673.00000000000000000000, 1687.00000000000000000000, 0.00000000000000000000
39.00000000000000000000, 0.00000000000000000000, 4584.61527250692690000000, 3984.61528717883950000000, 4229.23066581259810000000, 4246.66656282213260000000, 4254.87169082661880000000, 4473.33322394607690000000, 4186.66656428932400000000, 4620.51270752655640000000, 3831.28195759499480000000, 4427.17937892083960000000, 4737.43578159049140000000, 4249.74348582381480000000, 4519.48706897131430000000, 4070.76913122594940000000, 0.00000000000000000000, 4.00000000000000000000, 4.00000000000000000000, 3.00000000000000000000, 4.00000000000000000000, 2.00000000000000000000, 1.00000000000000000000, 4.00000000000000000000, 2.00000000000000000000, 0.00000000000000000000, 4.00000000000000000000, 4.00000000000000000000, 3.00000000000000000000, 0.00000000000000000000, 4.00000000000000000000, 4.00000000000000000000, 4.00000000000000000000, 1673.00000000000000000000, 1687.00000000000000000000, 0.00000000000000000000
40.00000000000000000000, 0.00000000000000000000, 4587.69219550861000000000, 3989.23067168136320000000, 4231.28194781371990000000, 4239.48707581820690000000, 4274.35886983727510000000, 4477.43578794832050000000, 4207.17938430054070000000, 4626.15373302964140000000, 3830.76913709471460000000, 4431.79476342336330000000, 4744.61526859441710000000, 4255.38451132689990000000, 4521.02553047215590000000, 4082.56400273239930000000, 0.00000000000000000000, 4.00000000000000000000, 4.00000000000000000000, 3.00000000000000000000, 4.00000000000000000000, 2.00000000000000000000, 1.00000000000000000000, 4.00000000000000000000, 2.00000000000000000000, 0.00000000000000000000, 4.00000000000000000000, 4.00000000000000000000, 3.00000000000000000000, 0.00000000000000000000, 4.00000000000000000000, 4.00000000000000000000, 4.00000000000000000000, 1673.00000000000000000000, 1687.00000000000000000000, 0.00000000000000000000
41.00000000000000000000, 0.00000000000000000000, 4578.97424700384270000000, 3989.23067168136320000000, 4230.25630681315940000000, 4237.43579381708510000000, 4249.23066532353460000000, 4474.35886494663740000000, 4207.17938430054070000000, 4621.02552802683660000000, 3831.79477809527540000000, 4427.69219942111980000000, 4738.97424309133290000000, 4255.38451132689990000000, 4518.97424847103410000000, 4090.76913073688590000000, 0.00000000000000000000, 4.00000000000000000000, 4.00000000000000000000, 3.00000000000000000000, 4.00000000000000000000, 2.00000000000000000000, 1.00000000000000000000, 4.00000000000000000000, 2.00000000000000000000, 0.00000000000000000000, 4.00000000000000000000, 4.00000000000000000000, 3.00000000000000000000, 0.00000000000000000000, 4.00000000000000000000, 4.00000000000000000000, 4.00000000000000000000, 1674.00000000000000000000, 1686.00000000000000000000, 0.00000000000000000000
42.00000000000000000000, 0.00000000000000000000, 4568.20501649795370000000, 3976.92297967463310000000, 4223.07681980923370000000, 4238.97425531792670000000, 4215.89733280530710000000, 4466.15373694215120000000, 4186.15374378904290000000, 4613.84604102291090000000, 3832.30759859555560000000, 4414.87168691410900000000, 4726.66655108460240000000, 4247.17938332241280000000, 4517.94860747047280000000, 4082.05118223211870000000, 0.00000000000000000000, 4.00000000000000000000, 4.00000000000000000000, 3.00000000000000000000, 4.00000000000000000000, 2.00000000000000000000, 1.00000000000000000000, 4.00000000000000000000, 2.00000000000000000000, 0.00000000000000000000, 4.00000000000000000000, 4.00000000000000000000, 3.00000000000000000000, 0.00000000000000000000, 4.00000000000000000000, 4.00000000000000000000, 4.00000000000000000000, 1673.00000000000000000000, 1687.00000000000000000000, 0.00000000000000000000
43.00000000000000000000, 0.00000000000000000000, 4566.66655499711310000000, 3974.35887717323110000000, 4216.41015330558820000000, 4234.87169131568320000000, 4244.10246032073060000000, 4468.71783944355320000000, 4185.64092328876270000000, 4615.38450252375240000000, 3831.28195759499480000000, 4414.87168691410900000000, 4726.15373058432210000000, 4244.61528082101090000000, 4516.41014596963210000000, 4075.89733622875380000000, 0.00000000000000000000, 4.00000000000000000000, 4.00000000000000000000, 3.00000000000000000000, 4.00000000000000000000, 2.00000000000000000000, 1.00000000000000000000, 4.00000000000000000000, 2.00000000000000000000, 0.00000000000000000000, 4.00000000000000000000, 4.00000000000000000000, 3.00000000000000000000, 0.00000000000000000000, 4.00000000000000000000, 4.00000000000000000000, 4.00000000000000000000, 1674.00000000000000000000, 1686.00000000000000000000, 0.00000000000000000000
44.00000000000000000000, 0.00000000000000000000, 4569.74347799879520000000, 3985.64092817940040000000, 4215.89733280530710000000, 4230.25630681315940000000, 4283.58963884232250000000, 4478.46142894888090000000, 4200.51271779689520000000, 4617.43578452487420000000, 3830.76913709471460000000, 4426.66655842055840000000, 4734.35885858880920000000, 4251.28194732465640000000, 4517.94860747047280000000, 4084.61528473352060000000, 0.00000000000000000000, 4.00000000000000000000, 4.00000000000000000000, 3.00000000000000000000, 4.00000000000000000000, 2.00000000000000000000, 1.00000000000000000000, 4.00000000000000000000, 2.00000000000000000000, 0.00000000000000000000, 4.00000000000000000000, 4.00000000000000000000, 3.00000000000000000000, 0.00000000000000000000, 4.00000000000000000000, 4.00000000000000000000, 4.00000000000000000000, 1673.00000000000000000000, 1686.00000000000000000000, 0.00000000000000000000
45.00000000000000000000, 0.00000000000000000000, 4571.28193949963680000000, 3991.28195368248500000000, 4217.43579430614860000000, 4230.76912731343960000000, 4261.53835733026430000000, 4475.38450594719870000000, 4196.41015379465170000000, 4613.84604102291090000000, 3831.79477809527540000000, 4424.10245591915650000000, 4737.94860209077160000000, 4252.82040882549790000000, 4521.53835097243610000000, 4090.25631023660530000000, 0.00000000000000000000, 4.00000000000000000000, 4.00000000000000000000, 3.00000000000000000000, 4.00000000000000000000, 2.00000000000000000000, 1.00000000000000000000, 4.00000000000000000000, 2.00000000000000000000, 0.00000000000000000000, 4.00000000000000000000, 4.00000000000000000000, 3.00000000000000000000, 0.00000000000000000000, 4.00000000000000000000, 4.00000000000000000000, 4.00000000000000000000, 1673.00000000000000000000, 1685.00000000000000000000, 0.00000000000000000000
46.00000000000000000000, 0.00000000000000000000, 4573.33322150075860000000, 3985.12810767911970000000, 4221.02553780811190000000, 4232.30758881428120000000, 4225.64092231063570000000, 4463.58963444074930000000, 4180.51271828595870000000, 4614.87168202347220000000, 3831.79477809527540000000, 4411.28194341214660000000, 4734.87167908908940000000, 4250.25630632409500000000, 4519.48706897131430000000, 4085.64092573408150000000, 0.00000000000000000000, 4.00000000000000000000, 4.00000000000000000000, 3.00000000000000000000, 4.00000000000000000000, 2.00000000000000000000, 1.00000000000000000000, 4.00000000000000000000, 2.00000000000000000000, 0.00000000000000000000, 4.00000000000000000000, 4.00000000000000000000, 3.00000000000000000000, 0.00000000000000000000, 4.00000000000000000000, 4.00000000000000000000, 4.00000000000000000000, 1672.00000000000000000000, 1686.00000000000000000000, 0.00000000000000000000
47.00000000000000000000, 0.00000000000000000000, 4574.87168300159920000000, 3981.02554367687660000000, 4224.61528131007440000000, 4232.82040931456140000000, 4240.51271681876730000000, 4465.12809594158990000000, 4172.30759028147170000000, 4614.35886152319110000000, 3831.28195759499480000000, 4407.69219991018330000000, 4730.25629458656570000000, 4250.25630632409500000000, 4515.38450496907080000000, 4083.58964373295980000000, 0.00000000000000000000, 4.00000000000000000000, 4.00000000000000000000, 3.00000000000000000000, 4.00000000000000000000, 2.00000000000000000000, 1.00000000000000000000, 4.00000000000000000000, 2.00000000000000000000, 0.00000000000000000000, 4.00000000000000000000, 4.00000000000000000000, 3.00000000000000000000, 0.00000000000000000000, 4.00000000000000000000, 4.00000000000000000000, 4.00000000000000000000, 1673.00000000000000000000, 1685.00000000000000000000, 0.00000000000000000000
